 vasp.5.4.4.18Apr17-6-g9f103f2a35 (build Jul 19 2018 11:24:23) complex          
  
 executed on             CrayXC50 date 2020.08.24  22:41:40
 running on   36 total cores
 distrk:  each k-point on   36 cores,    1 groups
 distr:  one band on NCORES_PER_BAND=   9 cores,    4 groups


--------------------------------------------------------------------------------------------------------


 INCAR:
 POTCAR:    PAW_PBE Ga_d 06Jul2010                
 POTCAR:    PAW_PBE N 08Apr2002                   
 POTCAR:    PAW_PBE Ga_d 06Jul2010                
   VRHFIN =Ga: s2p1                                                             
   LEXCH  = PE                                                                  
   EATOM  =  2148.8298 eV,  157.9345 Ry                                         
                                                                                
   TITEL  = PAW_PBE Ga_d 06Jul2010                                              
   LULTRA =        F    use ultrasoft PP ?                                      
   IUNSCR =        1    unscreen: 0-lin 1-nonlin 2-no                           
   RPACOR =    1.700    partial core radius                                     
   POMASS =   69.723; ZVAL   =   13.000    mass and valenz                      
   RCORE  =    2.300    outmost cutoff radius                                   
   RWIGS  =    2.300; RWIGS  =    1.217    wigner-seitz radius (au A)           
   ENMAX  =  282.691; ENMIN  =  212.018 eV                                      
   ICORE  =        3    local potential                                         
   LCOR   =        T    correct aug charges                                     
   LPAW   =        T    paw PP                                                  
   EAUG   =  490.690                                                            
   DEXC   =    0.000                                                            
   RMAX   =    2.341    core radius for proj-oper                               
   RAUG   =    1.300    factor for augmentation sphere                          
   RDEP   =    2.413    radius for radial grids                                 
   RDEPT  =    1.856    core radius for aug-charge                              
                                                                                
   Atomic configuration                                                         
    9 entries                                                                   
     n  l   j            E        occ.                                          
     1  0  0.50    -10228.7831   2.0000                                         
     2  0  0.50     -1262.1604   2.0000                                         
     2  1  1.50     -1098.6333   6.0000                                         
     3  0  0.50      -148.1110   2.0000                                         
     3  1  1.50       -98.8436   6.0000                                         
     3  2  2.50       -19.1549  10.0000                                         
     4  0  0.50        -8.9483   2.0000                                         
     4  1  0.50        -2.5791   1.0000                                         
     4  3  2.50        -2.7416   0.0000                                         
   Description                                                                  
     l       E           TYP  RCUT    TYP  RCUT                                 
     2    -19.1549037     23  2.300                                             
     2     -5.4423304     23  2.300                                             
     0     -8.9483111     23  2.300                                             
     0     68.0291300     23  2.300                                             
     1     -2.5790802     23  2.100                                             
     1     81.6349560     23  2.300                                             
     3      6.8029130     23  2.300                                             
  local pseudopotential read in
  partial core-charges read in
  partial kinetic energy density read in
  atomic valenz-charges read in
  non local Contribution for L=           2  read in
    real space projection operators read in
  non local Contribution for L=           2  read in
    real space projection operators read in
  non local Contribution for L=           0  read in
    real space projection operators read in
  non local Contribution for L=           0  read in
    real space projection operators read in
  non local Contribution for L=           1  read in
    real space projection operators read in
  non local Contribution for L=           1  read in
    real space projection operators read in
    PAW grid and wavefunctions read in
 
   number of l-projection  operators is LMAX  =           6
   number of lm-projection operators is LMMAX =          18
 
 POTCAR:    PAW_PBE N 08Apr2002                   
   VRHFIN =N: s2p3                                                              
   LEXCH  = PE                                                                  
   EATOM  =   264.5486 eV,   19.4438 Ry                                         
                                                                                
   TITEL  = PAW_PBE N 08Apr2002                                                 
   LULTRA =        F    use ultrasoft PP ?                                      
   IUNSCR =        1    unscreen: 0-lin 1-nonlin 2-no                           
   RPACOR =    1.200    partial core radius                                     
   POMASS =   14.001; ZVAL   =    5.000    mass and valenz                      
   RCORE  =    1.500    outmost cutoff radius                                   
   RWIGS  =    1.400; RWIGS  =    0.741    wigner-seitz radius (au A)           
   ENMAX  =  400.000; ENMIN  =  300.000 eV                                      
   ICORE  =        2    local potential                                         
   LCOR   =        T    correct aug charges                                     
   LPAW   =        T    paw PP                                                  
   EAUG   =  627.112                                                            
   DEXC   =    0.000                                                            
   RMAX   =    1.529    core radius for proj-oper                               
   RAUG   =    1.300    factor for augmentation sphere                          
   RDEP   =    1.514    radius for radial grids                                 
   RDEPT  =    1.338    core radius for aug-charge                              
                                                                                
   Atomic configuration                                                         
    4 entries                                                                   
     n  l   j            E        occ.                                          
     1  0  0.50      -384.7179   2.0000                                         
     2  0  0.50       -18.5828   2.0000                                         
     2  1  0.50        -7.0898   3.0000                                         
     3  2  1.50        -6.8029   0.0000                                         
   Description                                                                  
     l       E           TYP  RCUT    TYP  RCUT                                 
     0    -18.5828119     23  1.200                                             
     0    -13.5018863     23  1.200                                             
     1     -7.0897853     23  1.500                                             
     1      9.5240782     23  1.500                                             
     2     -6.8029130      7  1.500                                             
  local pseudopotential read in
  partial core-charges read in
  partial kinetic energy density read in
  atomic valenz-charges read in
  non local Contribution for L=           0  read in
    real space projection operators read in
  non local Contribution for L=           0  read in
    real space projection operators read in
  non local Contribution for L=           1  read in
    real space projection operators read in
  non local Contribution for L=           1  read in
    real space projection operators read in
    PAW grid and wavefunctions read in
 
   number of l-projection  operators is LMAX  =           4
   number of lm-projection operators is LMMAX =           8
 

 ----------------------------------------------------------------------------- 
|                                                                             |
|  ADVICE TO THIS USER RUNNING 'VASP/VAMP'   (HEAR YOUR MASTER'S VOICE ...):  |
|                                                                             |
|      You have a (more or less) 'large supercell' and for larger cells       |
|      it might be more efficient to use real space projection opertators     |
|      So try LREAL= Auto  in the INCAR   file.                               |
|      Mind:          For very  accurate calculation you might also keep the  |
|      reciprocal projection scheme          (i.e. LREAL=.FALSE.)             |
|                                                                             |
 ----------------------------------------------------------------------------- 

  PAW_PBE Ga_d 06Jul2010                :
 energy of atom  1       EATOM=-2148.8298
 kinetic energy error for atom=    0.0025 (will be added to EATOM!!)
  PAW_PBE N 08Apr2002                   :
 energy of atom  2       EATOM= -264.5486
 kinetic energy error for atom=    0.0116 (will be added to EATOM!!)
 
 
 POSCAR: system_name                             
  positions in direct lattice
  No initial velocities read in
 exchange correlation table for  LEXCH =        8
   RHO(1)=    0.500       N(1)  =     2000
   RHO(2)=  100.500       N(2)  =     4000
 


--------------------------------------------------------------------------------------------------------


 ion  position               nearest neighbor table
   1  0.249  0.175  0.237-  17 1.94  18 1.96  19 1.97  21 2.04
   2  0.748  0.166  0.255-  20 1.91  22 1.92  17 1.94  18 1.96
   3  0.006  0.683  0.248-  23 1.94  19 1.95  20 1.95  17 1.96
   4  0.500  0.667  0.249-  18 1.91  19 1.92  24 1.94  20 1.95
   5  0.011  0.317  0.495-  21 1.89  22 1.94  23 1.95  25 1.96
   6  0.506  0.340  0.506-  24 1.93  22 1.94  21 1.99  26 2.00
   7  0.245  0.825  0.504-  24 1.90  27 1.93  21 1.95  23 1.95
   8  0.740  0.814  0.502-  24 1.86  23 1.94  28 1.97  22 1.98
   9  0.243  0.158  0.755-  25 1.88  29 1.89  27 1.94  26 1.95
  10  0.742  0.153  0.749-  28 1.89  30 1.91  25 1.98  26 1.99
  11  0.005  0.658  0.749-  27 1.91  28 1.97  31 1.97  25 1.98
  12  0.493  0.674  0.777-  27 1.93  26 1.94  28 1.96  15 2.69  14 2.77
  13  0.997  0.333  0.003-  31 1.87  17 1.89  30 1.91  29 1.93
  14  0.490  0.354  0.987-  18 1.97  29 1.97  30 2.01  12 2.77  15 2.85
  15  0.273  0.813  0.989-  19 1.92  31 1.95  29 1.96  12 2.69  14 2.85
  16  0.758  0.840  0.995-  30 1.91  31 1.95  20 1.96
  17  0.990  0.344  0.187-  13 1.89   2 1.94   1 1.94   3 1.96
  18  0.508  0.344  0.178-   4 1.91   1 1.96   2 1.96  14 1.97
  19  0.260  0.834  0.175-  15 1.92   4 1.92   3 1.95   1 1.97
  20  0.749  0.842  0.186-   2 1.91   4 1.95   3 1.95  16 1.96
  21  0.258  0.158  0.435-   5 1.89   7 1.95   6 1.99   1 2.04
  22  0.750  0.159  0.442-   2 1.92   5 1.94   6 1.94   8 1.98
  23  0.994  0.657  0.437-   8 1.94   3 1.94   5 1.95   7 1.95
  24  0.493  0.670  0.438-   8 1.86   7 1.90   6 1.93   4 1.94
  25  0.002  0.314  0.686-   9 1.88   5 1.96  10 1.98  11 1.98
  26  0.488  0.350  0.700-  12 1.94   9 1.95  10 1.99   6 2.00
  27  0.254  0.823  0.691-  11 1.91  12 1.93   7 1.93   9 1.94
  28  0.742  0.822  0.693-  10 1.89  12 1.96  11 1.97   8 1.97
  29  0.241  0.158  0.938-   9 1.89  13 1.93  15 1.96  14 1.97
  30  0.753  0.171  0.935-  13 1.91  16 1.91  10 1.91  14 2.01
  31  0.007  0.656  0.940-  13 1.87  16 1.95  15 1.95  11 1.97
 
  LATTYP: Found a simple orthorhombic cell.
 ALAT       =     5.4593644000
 B/A-ratio  =     1.1547000600
 C/A-ratio  =     1.8812268329
  
  Lattice vectors:
  
 A1 = (   0.0000000000,  -5.4593644000,   0.0000000000)
 A2 = (  -6.3039284000,   0.0000000000,   0.0000000000)
 A3 = (   0.0000000000,   0.0000000000, -10.2703028000)


Analysis of symmetry for initial positions (statically):
=====================================================================
 Subroutine PRICEL returns:
 Original cell was already a primitive cell.
 

 Routine SETGRP: Setting up the symmetry group for a 
 simple orthorhombic supercell.


 Subroutine GETGRP returns: Found  1 space group operations
 (whereof  1 operations were pure point group operations)
 out of a pool of  8 trial point group operations.


The static configuration has the point symmetry C_1 .


Analysis of symmetry for dynamics (positions and initial velocities):
=====================================================================
 Subroutine PRICEL returns:
 Original cell was already a primitive cell.
 

 Routine SETGRP: Setting up the symmetry group for a 
 simple orthorhombic supercell.


 Subroutine GETGRP returns: Found  1 space group operations
 (whereof  1 operations were pure point group operations)
 out of a pool of  8 trial point group operations.


The dynamic configuration has the point symmetry C_1 .


Analysis of constrained symmetry for selective dynamics:
=====================================================================
 Subroutine PRICEL returns:
 Original cell was already a primitive cell.
 

 Routine SETGRP: Setting up the symmetry group for a 
 simple orthorhombic supercell.


 Subroutine GETGRP returns: Found  1 space group operations
 (whereof  1 operations were pure point group operations)
 out of a pool of  8 trial point group operations.


The constrained configuration has the point symmetry C_1 .


 Subroutine INISYM returns: Found  1 space group operations
 (whereof  1 operations are pure point group operations),
 and found     1 'primitive' translations

 
 
 KPOINTS: automatic mesh                          

Automatic generation of k-mesh.
Space group operators:
 irot       det(A)        alpha          n_x          n_y          n_z        tau_x        tau_y        tau_z
    1     1.000000     0.000000     1.000000     0.000000     0.000000     0.000000     0.000000     0.000000
 
 Subroutine IBZKPT returns following result:
 ===========================================
 
 Found     16 irreducible k-points:
 
 Following reciprocal coordinates:
            Coordinates               Weight
  0.125000  0.125000  0.250000      2.000000
  0.375000  0.125000  0.250000      2.000000
 -0.375000  0.125000  0.250000      2.000000
 -0.125000  0.125000  0.250000      2.000000
  0.125000  0.375000  0.250000      2.000000
  0.375000  0.375000  0.250000      2.000000
 -0.375000  0.375000  0.250000      2.000000
 -0.125000  0.375000  0.250000      2.000000
  0.125000 -0.375000  0.250000      2.000000
  0.375000 -0.375000  0.250000      2.000000
 -0.375000 -0.375000  0.250000      2.000000
 -0.125000 -0.375000  0.250000      2.000000
  0.125000 -0.125000  0.250000      2.000000
  0.375000 -0.125000  0.250000      2.000000
 -0.375000 -0.125000  0.250000      2.000000
 -0.125000 -0.125000  0.250000      2.000000
 
 Following cartesian coordinates:
            Coordinates               Weight
  0.019829  0.022896  0.024342      2.000000
  0.059487  0.022896  0.024342      2.000000
 -0.059487  0.022896  0.024342      2.000000
 -0.019829  0.022896  0.024342      2.000000
  0.019829  0.068689  0.024342      2.000000
  0.059487  0.068689  0.024342      2.000000
 -0.059487  0.068689  0.024342      2.000000
 -0.019829  0.068689  0.024342      2.000000
  0.019829 -0.068689  0.024342      2.000000
  0.059487 -0.068689  0.024342      2.000000
 -0.059487 -0.068689  0.024342      2.000000
 -0.019829 -0.068689  0.024342      2.000000
  0.019829 -0.022896  0.024342      2.000000
  0.059487 -0.022896  0.024342      2.000000
 -0.059487 -0.022896  0.024342      2.000000
 -0.019829 -0.022896  0.024342      2.000000
 


--------------------------------------------------------------------------------------------------------




 Dimension of arrays:
   k-points           NKPTS =     16   k-points in BZ     NKDIM =     16   number of bands    NBANDS=    168
   number of dos      NEDOS =    301   number of ions     NIONS =     31
   non local maximal  LDIM  =      6   non local SUM 2l+1 LMDIM =     18
   total plane-waves  NPLWV = 161280
   max r-space proj   IRMAX =      1   max aug-charges    IRDMAX=  17490
   dimension x,y,z NGX =    48 NGY =   42 NGZ =   80
   dimension x,y,z NGXF=    96 NGYF=   84 NGZF=  160
   support grid    NGXF=    96 NGYF=   84 NGZF=  160
   ions per type =              16  15
   NGX,Y,Z   is equivalent  to a cutoff of  12.66, 12.79, 12.95 a.u.
   NGXF,Y,Z  is equivalent  to a cutoff of  25.32, 25.58, 25.90 a.u.

 SYSTEM =  unknown system                          
 POSCAR =  system_name                             

 Startparameter for this run:
   NWRITE =      2    write-flag & timer
   PREC   = accura    normal or accurate (medium, high low for compatibility)
   ISTART =      0    job   : 0-new  1-cont  2-samecut
   ICHARG =      1    charge: 1-file 2-atom 10-const
   ISPIN  =      1    spin polarized calculation?
   LNONCOLLINEAR =      F non collinear calculations
   LSORBIT =      F    spin-orbit coupling
   INIWAV =      1    electr: 0-lowe 1-rand  2-diag
   LASPH  =      F    aspherical Exc in radial PAW
   METAGGA=      F    non-selfconsistent MetaGGA calc.

 Electronic Relaxation 1
   ENCUT  =  550.0 eV  40.42 Ry    6.36 a.u.  12.05 10.44 19.64*2*pi/ulx,y,z
   ENINI  =  550.0     initial cutoff
   ENAUG  =  627.1 eV  augmentation charge cutoff
   NELM   =     60;   NELMIN=  2; NELMDL= -5     # of ELM steps 
   EDIFF  = 0.1E-03   stopping-criterion for ELM
   LREAL  =      F    real-space projection
   NLSPLINE    = F    spline interpolate recip. space projectors
   LCOMPAT=      F    compatible to vasp.4.4
   GGA_COMPAT  = T    GGA compatible to vasp.4.4-vasp.4.6
   LMAXPAW     = -100 max onsite density
   LMAXMIX     =    2 max onsite mixed and CHGCAR
   VOSKOWN=      0    Vosko Wilk Nusair interpolation
   ROPT   =    0.00000   0.00000
 Ionic relaxation
   EDIFFG = 0.1E-02   stopping-criterion for IOM
   NSW    =      0    number of steps for IOM
   NBLOCK =      1;   KBLOCK =      1    inner block; outer block 
   IBRION =     -1    ionic relax: 0-MD 1-quasi-New 2-CG
   NFREE  =      0    steps in history (QN), initial steepest desc. (CG)
   ISIF   =      0    stress and relaxation
   IWAVPR =     10    prediction:  0-non 1-charg 2-wave 3-comb
   ISYM   =      2    0-nonsym 1-usesym 2-fastsym
   LCORR  =      T    Harris-Foulkes like correction to forces

   POTIM  = 0.5000    time-step for ionic-motion
   TEIN   =    0.0    initial temperature
   TEBEG  =    0.0;   TEEND  =   0.0 temperature during run
   SMASS  =  -3.00    Nose mass-parameter (am)
   estimated Nose-frequenzy (Omega)   =  0.10E-29 period in steps =****** mass=  -0.908E-27a.u.
   SCALEE = 1.0000    scale energy and forces
   NPACO  =    256;   APACO  = 16.0  distance and # of slots for P.C.
   PSTRESS=    0.0 pullay stress

  Mass of Ions in am
   POMASS =  69.72 14.00
  Ionic Valenz
   ZVAL   =  13.00  5.00
  Atomic Wigner-Seitz radii
   RWIGS  =  -1.00 -1.00
  virtual crystal weights 
   VCA    =   1.00  1.00
   NELECT =     280.0000    total number of electrons
   NUPDOWN=      -1.0000    fix difference up-down

 DOS related values:
   EMIN   =  10.00;   EMAX   =-10.00  energy-range for DOS
   EFERMI =   0.00
   ISMEAR =     0;   SIGMA  =   0.01  broadening in eV -4-tet -1-fermi 0-gaus

 Electronic relaxation 2 (details)
   IALGO  =     38    algorithm
   LDIAG  =      T    sub-space diagonalisation (order eigenvalues)
   LSUBROT=      F    optimize rotation matrix (better conditioning)
   TURBO    =      0    0=normal 1=particle mesh
   IRESTART =      0    0=no restart 2=restart with 2 vectors
   NREBOOT  =      0    no. of reboots
   NMIN     =      0    reboot dimension
   EREF     =   0.00    reference energy to select bands
   IMIX   =      4    mixing-type and parameters
     AMIX     =   0.40;   BMIX     =  1.00
     AMIX_MAG =   1.60;   BMIX_MAG =  1.00
     AMIN     =   0.10
     WC   =   100.;   INIMIX=   1;  MIXPRE=   1;  MAXMIX= -45

 Intra band minimization:
   WEIMIN = 0.0000     energy-eigenvalue tresh-hold
   EBREAK =  0.15E-06  absolut break condition
   DEPER  =   0.30     relativ break condition  

   TIME   =   0.40     timestep for ELM

  volume/ion in A,a.u.               =      11.40        76.94
  Fermi-wavevector in a.u.,A,eV,Ry     =   1.514777  2.862513 31.219230  2.294549
  Thomas-Fermi vector in A             =   2.624389
 
 Write flags
   LWAVE        =      F    write WAVECAR
   LDOWNSAMPLE  =      F    k-point downsampling of WAVECAR
   LCHARG       =      T    write CHGCAR
   LVTOT        =      T    write LOCPOT, total local potential
   LVHAR        =      F    write LOCPOT, Hartree potential only
   LELF         =      F    write electronic localiz. function (ELF)
   LORBIT       =      0    0 simple, 1 ext, 2 COOP (PROOUT), +10 PAW based schemes


 Dipole corrections
   LMONO  =      F    monopole corrections only (constant potential shift)
   LDIPOL =      F    correct potential (dipole corrections)
   IDIPOL =      0    1-x, 2-y, 3-z, 4-all directions 
   EPSILON=  1.0000000 bulk dielectric constant

 Exchange correlation treatment:
   GGA     =    --    GGA type
   LEXCH   =     8    internal setting for exchange type
   VOSKOWN=      0    Vosko Wilk Nusair interpolation
   LHFCALC =     F    Hartree Fock is set to
   LHFONE  =     F    Hartree Fock one center treatment
   AEXX    =    0.0000 exact exchange contribution

 Linear response parameters
   LEPSILON=     F    determine dielectric tensor
   LRPA    =     F    only Hartree local field effects (RPA)
   LNABLA  =     F    use nabla operator in PAW spheres
   LVEL    =     F    velocity operator in full k-point grid
   LINTERFAST=   F  fast interpolation
   KINTER  =     0    interpolate to denser k-point grid
   CSHIFT  =0.1000    complex shift for real part using Kramers Kronig
   OMEGAMAX=  -1.0    maximum frequency
   DEG_THRESHOLD= 0.2000000E-02 threshold for treating states as degnerate
   RTIME   =   -0.100 relaxation time in fs
  (WPLASMAI=    0.000 imaginary part of plasma frequency in eV, 0.658/RTIME)
   DFIELD  = 0.0000000 0.0000000 0.0000000 field for delta impulse in time
 
 Orbital magnetization related:
   ORBITALMAG=     F  switch on orbital magnetization
   LCHIMAG   =     F  perturbation theory with respect to B field
   DQ        =  0.001000  dq finite difference perturbation B field
   LLRAUG    =     F  two centre corrections for induced B field



--------------------------------------------------------------------------------------------------------


 Static calculation
 charge density and potential will be updated during run
 non-spin polarized calculation
 Variant of blocked Davidson
 Davidson routine will perform the subspace rotation
 perform sub-space diagonalisation
    after iterative eigenvector-optimisation
 modified Broyden-mixing scheme, WC =      100.0
 initial mixing is a Kerker type mixing with AMIX =  0.4000 and BMIX =      1.0000
 Hartree-type preconditioning will be used
 using additional bands           28
 reciprocal scheme for non local part
 use partial core corrections
 calculate Harris-corrections to forces 
   (improved forces if not selfconsistent)
 use gradient corrections 
 use of overlap-Matrix (Vanderbilt PP)
 Gauss-broadening in eV      SIGMA  =   0.01


--------------------------------------------------------------------------------------------------------


  energy-cutoff  :      550.00
  volume of cell :      353.46
      direct lattice vectors                 reciprocal lattice vectors
     6.303928400  0.000000000  0.000000000     0.158631243  0.000000000  0.000000000
     0.000000000  5.459364400  0.000000000     0.000000000  0.183171506  0.000000000
     0.000000000  0.000000000 10.270302800     0.000000000  0.000000000  0.097368113

  length of vectors
     6.303928400  5.459364400 10.270302800     0.158631243  0.183171506  0.097368113


 
 k-points in units of 2pi/SCALE and weight: automatic mesh                          
   0.01982891  0.02289644  0.02434203       0.062
   0.05948672  0.02289644  0.02434203       0.062
  -0.05948672  0.02289644  0.02434203       0.062
  -0.01982891  0.02289644  0.02434203       0.062
   0.01982891  0.06868931  0.02434203       0.062
   0.05948672  0.06868931  0.02434203       0.062
  -0.05948672  0.06868931  0.02434203       0.062
  -0.01982891  0.06868931  0.02434203       0.062
   0.01982891 -0.06868931  0.02434203       0.062
   0.05948672 -0.06868931  0.02434203       0.062
  -0.05948672 -0.06868931  0.02434203       0.062
  -0.01982891 -0.06868931  0.02434203       0.062
   0.01982891 -0.02289644  0.02434203       0.062
   0.05948672 -0.02289644  0.02434203       0.062
  -0.05948672 -0.02289644  0.02434203       0.062
  -0.01982891 -0.02289644  0.02434203       0.062
 
 k-points in reciprocal lattice and weights: automatic mesh                          
   0.12500000  0.12500000  0.25000000       0.062
   0.37500000  0.12500000  0.25000000       0.062
  -0.37500000  0.12500000  0.25000000       0.062
  -0.12500000  0.12500000  0.25000000       0.062
   0.12500000  0.37500000  0.25000000       0.062
   0.37500000  0.37500000  0.25000000       0.062
  -0.37500000  0.37500000  0.25000000       0.062
  -0.12500000  0.37500000  0.25000000       0.062
   0.12500000 -0.37500000  0.25000000       0.062
   0.37500000 -0.37500000  0.25000000       0.062
  -0.37500000 -0.37500000  0.25000000       0.062
  -0.12500000 -0.37500000  0.25000000       0.062
   0.12500000 -0.12500000  0.25000000       0.062
   0.37500000 -0.12500000  0.25000000       0.062
  -0.37500000 -0.12500000  0.25000000       0.062
  -0.12500000 -0.12500000  0.25000000       0.062
 
 position of ions in fractional coordinates (direct lattice) 
   0.24941590  0.17546676  0.23659770
   0.74832068  0.16598123  0.25475977
   0.00633140  0.68269303  0.24849511
   0.50034198  0.66727365  0.24913871
   0.01090071  0.31736112  0.49490751
   0.50617168  0.33995166  0.50599482
   0.24477435  0.82466743  0.50373490
   0.73959914  0.81390977  0.50169504
   0.24323246  0.15803012  0.75471582
   0.74157727  0.15261062  0.74883187
   0.00452764  0.65821032  0.74874910
   0.49342883  0.67433125  0.77741720
   0.99749409  0.33320546  0.00273577
   0.49037835  0.35400824  0.98715687
   0.27341998  0.81276861  0.98910424
   0.75795753  0.84043483  0.99467369
   0.99031023  0.34438808  0.18675886
   0.50779289  0.34354182  0.17810673
   0.25987446  0.83403116  0.17516037
   0.74886955  0.84219328  0.18551741
   0.25821042  0.15756376  0.43494239
   0.75003390  0.15854996  0.44155465
   0.99406074  0.65677243  0.43687709
   0.49264202  0.66987285  0.43815943
   0.00239909  0.31443587  0.68597393
   0.48803219  0.35047853  0.70025491
   0.25416374  0.82334127  0.69148692
   0.74165976  0.82189971  0.69325415
   0.24110997  0.15756962  0.93846990
   0.75326205  0.17121059  0.93487799
   0.00696558  0.65553235  0.94037344
 
 position of ions in cartesian coordinates  (Angst):
   1.57230000  0.95793700  2.42993000
   4.71736000  0.90615200  2.61646000
   0.03991270  3.72707000  2.55212000
   3.15412000  3.64289000  2.55873000
   0.06871730  1.73259000  5.08285000
   3.19087000  1.85592000  5.19672000
   1.54304000  4.50216000  5.17351000
   4.66238000  4.44343000  5.15256000
   1.53332000  0.86274400  7.75116000
   4.67485000  0.83315700  7.69073000
   0.02854190  3.59341000  7.68988000
   3.11054000  3.68142000  7.98431000
   6.28813130  1.81909000  0.02809720
   3.09131000  1.93266000 10.13840000
   1.72362000  4.43720000 10.15840000
   4.77811000  4.58824000 10.21560000
   6.24284480  1.88014000  1.91807000
   3.20109000  1.87552000  1.82921000
   1.63823000  4.55328000  1.79895000
   4.72082000  4.59784000  1.90532000
   1.62774000  0.86019800  4.46699000
   4.72816000  0.86558200  4.53490000
   6.26648770  3.58556000  4.48686000
   3.10558000  3.65708000  4.50003000
   0.01512370  1.71662000  7.04516000
   3.07652000  1.91339000  7.19183000
   1.60223000  4.49492000  7.10178000
   4.67537000  4.48705000  7.11993000
   1.51994000  0.86023000  9.63837000
   4.74851000  0.93470100  9.60148000
   0.04391050  3.57879000  9.65792000
 


--------------------------------------------------------------------------------------------------------


 k-point  1 :   0.1250 0.1250 0.2500  plane waves:   10349
 k-point  2 :   0.3750 0.1250 0.2500  plane waves:   10374
 k-point  3 :  -0.3750 0.1250 0.2500  plane waves:   10374
 k-point  4 :  -0.1250 0.1250 0.2500  plane waves:   10349
 k-point  5 :   0.1250 0.3750 0.2500  plane waves:   10353
 k-point  6 :   0.3750 0.3750 0.2500  plane waves:   10341
 k-point  7 :  -0.3750 0.3750 0.2500  plane waves:   10341
 k-point  8 :  -0.1250 0.3750 0.2500  plane waves:   10353
 k-point  9 :   0.1250-0.3750 0.2500  plane waves:   10353
 k-point 10 :   0.3750-0.3750 0.2500  plane waves:   10341
 k-point 11 :  -0.3750-0.3750 0.2500  plane waves:   10341
 k-point 12 :  -0.1250-0.3750 0.2500  plane waves:   10353
 k-point 13 :   0.1250-0.1250 0.2500  plane waves:   10349
 k-point 14 :   0.3750-0.1250 0.2500  plane waves:   10374
 k-point 15 :  -0.3750-0.1250 0.2500  plane waves:   10374
 k-point 16 :  -0.1250-0.1250 0.2500  plane waves:   10349

 maximum and minimum number of plane-waves per node :      1174     1130

 maximum number of plane-waves:     10374
 maximum index in each direction: 
   IXMAX=   12   IYMAX=   10   IZMAX=   19
   IXMIN=  -12   IYMIN=  -10   IZMIN=  -19


 parallel 3D FFT for wavefunctions:
    minimum data exchange during FFTs selected (reduces bandwidth)
 parallel 3D FFT for charge:
    minimum data exchange during FFTs selected (reduces bandwidth)


 total amount of memory used by VASP MPI-rank0    54108. kBytes
=======================================================================

   base      :      30000. kBytes
   nonl-proj :       5941. kBytes
   fftplans  :       1943. kBytes
   grid      :       3088. kBytes
   one-center:         62. kBytes
   wavefun   :      13074. kBytes
 
     INWAV:  cpu time    0.0000: real time    0.0000
 Broyden mixing: mesh for mixing (old mesh)
   NGX = 25   NGY = 21   NGZ = 39
  (NGX  = 96   NGY  = 84   NGZ  =160)
  gives a total of  20475 points

 initial charge density was supplied:
 charge density of overlapping atoms calculated
 number of electron     283.0000000 magnetization 
 keeping initial charge density in first step


--------------------------------------------------------------------------------------------------------


 Maximum index for augmentation-charges          802 (set IRDMAX)


--------------------------------------------------------------------------------------------------------


 First call to EWALD:  gamma=   0.251
 Maximum number of real-space cells 3x 3x 2
 Maximum number of reciprocal cells 3x 2x 4

    FEWALD:  cpu time    0.0000: real time    0.0014


--------------------------------------- Iteration      1(   1)  ---------------------------------------


    POTLOK:  cpu time    0.0160: real time    0.0217
    SETDIJ:  cpu time    0.0040: real time    0.0038
     EDDAV:  cpu time    3.0440: real time    3.0443
       DOS:  cpu time    0.0000: real time    0.0005
    --------------------------------------------
      LOOP:  cpu time    3.0640: real time    3.0703

 eigenvalue-minimisations  :  5656
 total energy-change (2. order) : 0.4834704E+04  (-0.1078300E+05)
 number of electron     283.0000000 magnetization 
 augmentation part      283.0000000 magnetization 

 Free energy of the ion-electron system (eV)
  ---------------------------------------------------
  alpha Z        PSCENC =      1589.50695893
  Ewald energy   TEWEN  =    -25302.02511439
  -Hartree energ DENC   =     -9111.44808327
  -exchange      EXHF   =         0.00000000
  -V(xc)+E(xc)   XCENC  =      1012.01129293
  PAW double counting   =     28724.48257400   -34079.19590656
  entropy T*S    EENTRO =        -0.00000000
  eigenvalues    EBANDS =      3652.08060899
  atomic energy  EATOM  =     38349.29185498
  Solvation  Ediel_sol  =         0.00000000
  ---------------------------------------------------
  free energy    TOTEN  =      4834.70418562 eV

  energy without entropy =     4834.70418562  energy(sigma->0) =     4834.70418562


--------------------------------------------------------------------------------------------------------




--------------------------------------- Iteration      1(   2)  ---------------------------------------


     EDDAV:  cpu time    2.9240: real time    2.9322
       DOS:  cpu time    0.0000: real time    0.0013
    --------------------------------------------
      LOOP:  cpu time    2.9240: real time    2.9336

 eigenvalue-minimisations  :  5376
 total energy-change (2. order) :-0.3754183E+04  (-0.3534580E+04)
 number of electron     283.0000000 magnetization 
 augmentation part      283.0000000 magnetization 

 Free energy of the ion-electron system (eV)
  ---------------------------------------------------
  alpha Z        PSCENC =      1589.50695893
  Ewald energy   TEWEN  =    -25302.02511439
  -Hartree energ DENC   =     -9111.44808327
  -exchange      EXHF   =         0.00000000
  -V(xc)+E(xc)   XCENC  =      1012.01129293
  PAW double counting   =     28724.48257400   -34079.19590656
  entropy T*S    EENTRO =        -0.00063128
  eigenvalues    EBANDS =      -102.10199811
  atomic energy  EATOM  =     38349.29185498
  Solvation  Ediel_sol  =         0.00000000
  ---------------------------------------------------
  free energy    TOTEN  =      1080.52094723 eV

  energy without entropy =     1080.52157851  energy(sigma->0) =     1080.52126287


--------------------------------------------------------------------------------------------------------




--------------------------------------- Iteration      1(   3)  ---------------------------------------


     EDDAV:  cpu time    3.2960: real time    3.3055
       DOS:  cpu time    0.0000: real time    0.0008
    --------------------------------------------
      LOOP:  cpu time    3.2960: real time    3.3064

 eigenvalue-minimisations  :  6352
 total energy-change (2. order) :-0.1129216E+04  (-0.1062847E+04)
 number of electron     283.0000000 magnetization 
 augmentation part      283.0000000 magnetization 

 Free energy of the ion-electron system (eV)
  ---------------------------------------------------
  alpha Z        PSCENC =      1589.50695893
  Ewald energy   TEWEN  =    -25302.02511439
  -Hartree energ DENC   =     -9111.44808327
  -exchange      EXHF   =         0.00000000
  -V(xc)+E(xc)   XCENC  =      1012.01129293
  PAW double counting   =     28724.48257400   -34079.19590656
  entropy T*S    EENTRO =        -0.00000001
  eigenvalues    EBANDS =     -1231.31883385
  atomic energy  EATOM  =     38349.29185498
  Solvation  Ediel_sol  =         0.00000000
  ---------------------------------------------------
  free energy    TOTEN  =       -48.69525723 eV

  energy without entropy =      -48.69525722  energy(sigma->0) =      -48.69525722


--------------------------------------------------------------------------------------------------------




--------------------------------------- Iteration      1(   4)  ---------------------------------------


     EDDAV:  cpu time    3.2000: real time    3.2083
       DOS:  cpu time    0.0000: real time    0.0005
    --------------------------------------------
      LOOP:  cpu time    3.2000: real time    3.2088

 eigenvalue-minimisations  :  6072
 total energy-change (2. order) :-0.1593717E+03  (-0.1533567E+03)
 number of electron     283.0000000 magnetization 
 augmentation part      283.0000000 magnetization 

 Free energy of the ion-electron system (eV)
  ---------------------------------------------------
  alpha Z        PSCENC =      1589.50695893
  Ewald energy   TEWEN  =    -25302.02511439
  -Hartree energ DENC   =     -9111.44808327
  -exchange      EXHF   =         0.00000000
  -V(xc)+E(xc)   XCENC  =      1012.01129293
  PAW double counting   =     28724.48257400   -34079.19590656
  entropy T*S    EENTRO =        -0.00000000
  eigenvalues    EBANDS =     -1390.69054730
  atomic energy  EATOM  =     38349.29185498
  Solvation  Ediel_sol  =         0.00000000
  ---------------------------------------------------
  free energy    TOTEN  =      -208.06697068 eV

  energy without entropy =     -208.06697068  energy(sigma->0) =     -208.06697068


--------------------------------------------------------------------------------------------------------




--------------------------------------- Iteration      1(   5)  ---------------------------------------


     EDDAV:  cpu time    4.1960: real time    4.2067
       DOS:  cpu time    0.0000: real time    0.0005
    CHARGE:  cpu time    0.1200: real time    0.1186
    MIXING:  cpu time    0.0000: real time    0.0010
    --------------------------------------------
      LOOP:  cpu time    4.3160: real time    4.3269

 eigenvalue-minimisations  :  8528
 total energy-change (2. order) :-0.1878987E+02  (-0.1862255E+02)
 number of electron     280.0000018 magnetization 
 augmentation part      141.0870294 magnetization 

 Broyden mixing:
  rms(total) = 0.29533E+01    rms(broyden)= 0.29486E+01
  rms(prec ) = 0.42268E+01
  weight for this iteration     100.00

 Free energy of the ion-electron system (eV)
  ---------------------------------------------------
  alpha Z        PSCENC =      1589.50695893
  Ewald energy   TEWEN  =    -25302.02511439
  -Hartree energ DENC   =     -9111.44808327
  -exchange      EXHF   =         0.00000000
  -V(xc)+E(xc)   XCENC  =      1012.01129293
  PAW double counting   =     28724.48257400   -34079.19590656
  entropy T*S    EENTRO =        -0.00000000
  eigenvalues    EBANDS =     -1409.48041620
  atomic energy  EATOM  =     38349.29185498
  Solvation  Ediel_sol  =         0.00000000
  ---------------------------------------------------
  free energy    TOTEN  =      -226.85683957 eV

  energy without entropy =     -226.85683957  energy(sigma->0) =     -226.85683957


--------------------------------------------------------------------------------------------------------




--------------------------------------- Iteration      1(   6)  ---------------------------------------


    POTLOK:  cpu time    0.0160: real time    0.0248
    SETDIJ:  cpu time    0.0040: real time    0.0034
     EDDAV:  cpu time    4.3320: real time    4.3331
       DOS:  cpu time    0.0000: real time    0.0006
    CHARGE:  cpu time    0.1200: real time    0.1173
    MIXING:  cpu time    0.0000: real time    0.0009
    --------------------------------------------
      LOOP:  cpu time    4.4720: real time    4.4801

 eigenvalue-minimisations  :  8880
 total energy-change (2. order) : 0.2949713E+02  (-0.1422778E+02)
 number of electron     280.0000020 magnetization 
 augmentation part      138.6301971 magnetization 

 Broyden mixing:
  rms(total) = 0.84291E+00    rms(broyden)= 0.84233E+00
  rms(prec ) = 0.10850E+01
  weight for this iteration     100.00

 eigenvalues of (default mixing * dielectric matrix)
  average eigenvalue GAMMA=   0.9228
  0.9228

 Free energy of the ion-electron system (eV)
  ---------------------------------------------------
  alpha Z        PSCENC =      1589.50695893
  Ewald energy   TEWEN  =    -25302.02511439
  -Hartree energ DENC   =     -9162.13835636
  -exchange      EXHF   =         0.00000000
  -V(xc)+E(xc)   XCENC  =      1010.76458340
  PAW double counting   =     30505.12036545   -35836.02526500
  entropy T*S    EENTRO =        -0.00000000
  eigenvalues    EBANDS =     -1351.85473654
  atomic energy  EATOM  =     38349.29185498
  Solvation  Ediel_sol  =         0.00000000
  ---------------------------------------------------
  free energy    TOTEN  =      -197.35970953 eV

  energy without entropy =     -197.35970953  energy(sigma->0) =     -197.35970953


--------------------------------------------------------------------------------------------------------




--------------------------------------- Iteration      1(   7)  ---------------------------------------


    POTLOK:  cpu time    0.0160: real time    0.0267
    SETDIJ:  cpu time    0.0000: real time    0.0033
     EDDAV:  cpu time    3.3400: real time    3.3374
       DOS:  cpu time    0.0000: real time    0.0013
    CHARGE:  cpu time    0.1200: real time    0.1191
    MIXING:  cpu time    0.0000: real time    0.0007
    --------------------------------------------
      LOOP:  cpu time    3.4760: real time    3.4885

 eigenvalue-minimisations  :  6424
 total energy-change (2. order) :-0.1470156E+01  (-0.2300785E+01)
 number of electron     280.0000020 magnetization 
 augmentation part      138.7342060 magnetization 

 Broyden mixing:
  rms(total) = 0.75111E+00    rms(broyden)= 0.75108E+00
  rms(prec ) = 0.86514E+00
  weight for this iteration     100.00

 eigenvalues of (default mixing * dielectric matrix)
  average eigenvalue GAMMA=   0.9053
  0.9053  0.9053

 Free energy of the ion-electron system (eV)
  ---------------------------------------------------
  alpha Z        PSCENC =      1589.50695893
  Ewald energy   TEWEN  =    -25302.02511439
  -Hartree energ DENC   =     -9138.85241355
  -exchange      EXHF   =         0.00000000
  -V(xc)+E(xc)   XCENC  =      1009.70249285
  PAW double counting   =     31883.59045356   -37233.86136704
  entropy T*S    EENTRO =        -0.00009462
  eigenvalues    EBANDS =     -1356.18263639
  atomic energy  EATOM  =     38349.29185498
  Solvation  Ediel_sol  =         0.00000000
  ---------------------------------------------------
  free energy    TOTEN  =      -198.82986567 eV

  energy without entropy =     -198.82977105  energy(sigma->0) =     -198.82981836


--------------------------------------------------------------------------------------------------------




--------------------------------------- Iteration      1(   8)  ---------------------------------------


    POTLOK:  cpu time    0.0160: real time    0.0222
    SETDIJ:  cpu time    0.0000: real time    0.0033
     EDDAV:  cpu time    3.4720: real time    3.4698
       DOS:  cpu time    0.0000: real time    0.0012
    CHARGE:  cpu time    0.1200: real time    0.1178
    MIXING:  cpu time    0.0000: real time    0.0007
    --------------------------------------------
      LOOP:  cpu time    3.6080: real time    3.6150

 eigenvalue-minimisations  :  6736
 total energy-change (2. order) :-0.4101452E-01  (-0.4466836E+00)
 number of electron     280.0000020 magnetization 
 augmentation part      138.7725284 magnetization 

 Broyden mixing:
  rms(total) = 0.53724E+00    rms(broyden)= 0.53722E+00
  rms(prec ) = 0.61692E+00
  weight for this iteration     100.00

 eigenvalues of (default mixing * dielectric matrix)
  average eigenvalue GAMMA=   1.2777
  2.1525  1.0858  0.5947

 Free energy of the ion-electron system (eV)
  ---------------------------------------------------
  alpha Z        PSCENC =      1589.50695893
  Ewald energy   TEWEN  =    -25302.02511439
  -Hartree energ DENC   =     -9133.42722265
  -exchange      EXHF   =         0.00000000
  -V(xc)+E(xc)   XCENC  =      1009.08579597
  PAW double counting   =     32788.77195978   -38158.98139134
  entropy T*S    EENTRO =        -0.00001015
  eigenvalues    EBANDS =     -1341.09371133
  atomic energy  EATOM  =     38349.29185498
  Solvation  Ediel_sol  =         0.00000000
  ---------------------------------------------------
  free energy    TOTEN  =      -198.87088020 eV

  energy without entropy =     -198.87087004  energy(sigma->0) =     -198.87087512


--------------------------------------------------------------------------------------------------------




--------------------------------------- Iteration      1(   9)  ---------------------------------------


    POTLOK:  cpu time    0.0160: real time    0.0255
    SETDIJ:  cpu time    0.0000: real time    0.0033
     EDDAV:  cpu time    3.9480: real time    3.9472
       DOS:  cpu time    0.0000: real time    0.0014
    CHARGE:  cpu time    0.1200: real time    0.1188
    MIXING:  cpu time    0.0000: real time    0.0008
    --------------------------------------------
      LOOP:  cpu time    4.0840: real time    4.0969

 eigenvalue-minimisations  :  7912
 total energy-change (2. order) :-0.2154998E-02  (-0.1848490E+00)
 number of electron     280.0000020 magnetization 
 augmentation part      138.8485181 magnetization 

 Broyden mixing:
  rms(total) = 0.17560E+00    rms(broyden)= 0.17555E+00
  rms(prec ) = 0.25922E+00
  weight for this iteration     100.00

 eigenvalues of (default mixing * dielectric matrix)
  average eigenvalue GAMMA=   1.2636
  2.6211  0.9596  0.9596  0.5140

 Free energy of the ion-electron system (eV)
  ---------------------------------------------------
  alpha Z        PSCENC =      1589.50695893
  Ewald energy   TEWEN  =    -25302.02511439
  -Hartree energ DENC   =     -9124.51741252
  -exchange      EXHF   =         0.00000000
  -V(xc)+E(xc)   XCENC  =      1008.15911292
  PAW double counting   =     34634.20309236   -40039.03967705
  entropy T*S    EENTRO =        -0.00134300
  eigenvalues    EBANDS =     -1314.45050743
  atomic energy  EATOM  =     38349.29185498
  Solvation  Ediel_sol  =         0.00000000
  ---------------------------------------------------
  free energy    TOTEN  =      -198.87303519 eV

  energy without entropy =     -198.87169219  energy(sigma->0) =     -198.87236369


--------------------------------------------------------------------------------------------------------




--------------------------------------- Iteration      1(  10)  ---------------------------------------


    POTLOK:  cpu time    0.0160: real time    0.0259
    SETDIJ:  cpu time    0.0040: real time    0.0033
     EDDAV:  cpu time    3.3600: real time    3.3613
       DOS:  cpu time    0.0000: real time    0.0013
    CHARGE:  cpu time    0.1200: real time    0.1180
    MIXING:  cpu time    0.0000: real time    0.0008
    --------------------------------------------
      LOOP:  cpu time    3.5000: real time    3.5107

 eigenvalue-minimisations  :  6472
 total energy-change (2. order) : 0.3584011E-01  (-0.5822726E-01)
 number of electron     280.0000020 magnetization 
 augmentation part      138.8044479 magnetization 

 Broyden mixing:
  rms(total) = 0.11840E+00    rms(broyden)= 0.11838E+00
  rms(prec ) = 0.16281E+00
  weight for this iteration     100.00

 eigenvalues of (default mixing * dielectric matrix)
  average eigenvalue GAMMA=   1.1169
  2.5381  0.9149  0.9149  0.7402  0.4765

 Free energy of the ion-electron system (eV)
  ---------------------------------------------------
  alpha Z        PSCENC =      1589.50695893
  Ewald energy   TEWEN  =    -25302.02511439
  -Hartree energ DENC   =     -9121.93085318
  -exchange      EXHF   =         0.00000000
  -V(xc)+E(xc)   XCENC  =      1008.34431223
  PAW double counting   =     35267.48452715   -40675.44131103
  entropy T*S    EENTRO =        -0.00136329
  eigenvalues    EBANDS =     -1314.06620649
  atomic energy  EATOM  =     38349.29185498
  Solvation  Ediel_sol  =         0.00000000
  ---------------------------------------------------
  free energy    TOTEN  =      -198.83719509 eV

  energy without entropy =     -198.83583180  energy(sigma->0) =     -198.83651344


--------------------------------------------------------------------------------------------------------




--------------------------------------- Iteration      1(  11)  ---------------------------------------


    POTLOK:  cpu time    0.0160: real time    0.0216
    SETDIJ:  cpu time    0.0040: real time    0.0034
     EDDAV:  cpu time    3.8520: real time    3.8527
       DOS:  cpu time    0.0000: real time    0.0014
    CHARGE:  cpu time    0.1200: real time    0.1180
    MIXING:  cpu time    0.0000: real time    0.0008
    --------------------------------------------
      LOOP:  cpu time    3.9920: real time    3.9979

 eigenvalue-minimisations  :  7672
 total energy-change (2. order) : 0.2956359E-02  (-0.2741102E-01)
 number of electron     280.0000020 magnetization 
 augmentation part      138.7672964 magnetization 

 Broyden mixing:
  rms(total) = 0.69240E-01    rms(broyden)= 0.69230E-01
  rms(prec ) = 0.81659E-01
  weight for this iteration     100.00

 eigenvalues of (default mixing * dielectric matrix)
  average eigenvalue GAMMA=   1.0106
  2.4803  0.9042  0.9077  0.9077  0.4698  0.3937

 Free energy of the ion-electron system (eV)
  ---------------------------------------------------
  alpha Z        PSCENC =      1589.50695893
  Ewald energy   TEWEN  =    -25302.02511439
  -Hartree energ DENC   =     -9122.59681013
  -exchange      EXHF   =         0.00000000
  -V(xc)+E(xc)   XCENC  =      1008.46498479
  PAW double counting   =     35165.67550497   -40570.91812931
  entropy T*S    EENTRO =        -0.00185094
  eigenvalues    EBANDS =     -1316.23163763
  atomic energy  EATOM  =     38349.29185498
  Solvation  Ediel_sol  =         0.00000000
  ---------------------------------------------------
  free energy    TOTEN  =      -198.83423873 eV

  energy without entropy =     -198.83238779  energy(sigma->0) =     -198.83331326


--------------------------------------------------------------------------------------------------------




--------------------------------------- Iteration      1(  12)  ---------------------------------------


    POTLOK:  cpu time    0.0160: real time    0.0223
    SETDIJ:  cpu time    0.0000: real time    0.0033
     EDDAV:  cpu time    3.4200: real time    3.4206
       DOS:  cpu time    0.0040: real time    0.0014
    CHARGE:  cpu time    0.1160: real time    0.1181
    MIXING:  cpu time    0.0040: real time    0.0008
    --------------------------------------------
      LOOP:  cpu time    3.5600: real time    3.5665

 eigenvalue-minimisations  :  6616
 total energy-change (2. order) :-0.2383652E-02  (-0.6843771E-02)
 number of electron     280.0000020 magnetization 
 augmentation part      138.7552926 magnetization 

 Broyden mixing:
  rms(total) = 0.42496E-01    rms(broyden)= 0.42493E-01
  rms(prec ) = 0.46890E-01
  weight for this iteration     100.00

 eigenvalues of (default mixing * dielectric matrix)
  average eigenvalue GAMMA=   1.0123
  2.4519  1.0303  1.0303  1.0141  0.5932  0.5205  0.4459

 Free energy of the ion-electron system (eV)
  ---------------------------------------------------
  alpha Z        PSCENC =      1589.50695893
  Ewald energy   TEWEN  =    -25302.02511439
  -Hartree energ DENC   =     -9123.08485694
  -exchange      EXHF   =         0.00000000
  -V(xc)+E(xc)   XCENC  =      1008.50355364
  PAW double counting   =     35090.91997492   -40494.80607786
  entropy T*S    EENTRO =        -0.00181586
  eigenvalues    EBANDS =     -1317.14109981
  atomic energy  EATOM  =     38349.29185498
  Solvation  Ediel_sol  =         0.00000000
  ---------------------------------------------------
  free energy    TOTEN  =      -198.83662238 eV

  energy without entropy =     -198.83480652  energy(sigma->0) =     -198.83571445


--------------------------------------------------------------------------------------------------------




--------------------------------------- Iteration      1(  13)  ---------------------------------------


    POTLOK:  cpu time    0.0120: real time    0.0269
    SETDIJ:  cpu time    0.0040: real time    0.0033
     EDDAV:  cpu time    3.4560: real time    3.4567
       DOS:  cpu time    0.0000: real time    0.0013
    CHARGE:  cpu time    0.1200: real time    0.1179
    MIXING:  cpu time    0.0000: real time    0.0009
    --------------------------------------------
      LOOP:  cpu time    3.5920: real time    3.6071

 eigenvalue-minimisations  :  6688
 total energy-change (2. order) :-0.1557683E-02  (-0.1706973E-02)
 number of electron     280.0000020 magnetization 
 augmentation part      138.7553672 magnetization 

 Broyden mixing:
  rms(total) = 0.26162E-01    rms(broyden)= 0.26162E-01
  rms(prec ) = 0.29915E-01
  weight for this iteration     100.00

 eigenvalues of (default mixing * dielectric matrix)
  average eigenvalue GAMMA=   1.1298
  2.5266  1.9474  1.1195  1.1195  0.7651  0.6830  0.4630  0.4147

 Free energy of the ion-electron system (eV)
  ---------------------------------------------------
  alpha Z        PSCENC =      1589.50695893
  Ewald energy   TEWEN  =    -25302.02511439
  -Hartree energ DENC   =     -9123.20357232
  -exchange      EXHF   =         0.00000000
  -V(xc)+E(xc)   XCENC  =      1008.49050780
  PAW double counting   =     35064.58720731   -40467.88358354
  entropy T*S    EENTRO =        -0.00173462
  eigenvalues    EBANDS =     -1317.60070421
  atomic energy  EATOM  =     38349.29185498
  Solvation  Ediel_sol  =         0.00000000
  ---------------------------------------------------
  free energy    TOTEN  =      -198.83818006 eV

  energy without entropy =     -198.83644544  energy(sigma->0) =     -198.83731275


--------------------------------------------------------------------------------------------------------




--------------------------------------- Iteration      1(  14)  ---------------------------------------


    POTLOK:  cpu time    0.0160: real time    0.0231
    SETDIJ:  cpu time    0.0040: real time    0.0033
     EDDAV:  cpu time    3.3440: real time    3.3450
       DOS:  cpu time    0.0000: real time    0.0013
    CHARGE:  cpu time    0.1200: real time    0.1178
    MIXING:  cpu time    0.0000: real time    0.0009
    --------------------------------------------
      LOOP:  cpu time    3.4840: real time    3.4915

 eigenvalue-minimisations  :  6416
 total energy-change (2. order) :-0.8748209E-03  (-0.6288647E-03)
 number of electron     280.0000020 magnetization 
 augmentation part      138.7593115 magnetization 

 Broyden mixing:
  rms(total) = 0.95083E-02    rms(broyden)= 0.95079E-02
  rms(prec ) = 0.12944E-01
  weight for this iteration     100.00

 eigenvalues of (default mixing * dielectric matrix)
  average eigenvalue GAMMA=   1.1139
  2.5841  2.1136  1.0162  1.0162  0.9467  0.7314  0.7314  0.4645  0.4210

 Free energy of the ion-electron system (eV)
  ---------------------------------------------------
  alpha Z        PSCENC =      1589.50695893
  Ewald energy   TEWEN  =    -25302.02511439
  -Hartree energ DENC   =     -9123.42037473
  -exchange      EXHF   =         0.00000000
  -V(xc)+E(xc)   XCENC  =      1008.47147324
  PAW double counting   =     35060.96244811   -40463.74437174
  entropy T*S    EENTRO =        -0.00178025
  eigenvalues    EBANDS =     -1317.88014905
  atomic energy  EATOM  =     38349.29185498
  Solvation  Ediel_sol  =         0.00000000
  ---------------------------------------------------
  free energy    TOTEN  =      -198.83905488 eV

  energy without entropy =     -198.83727464  energy(sigma->0) =     -198.83816476


--------------------------------------------------------------------------------------------------------




--------------------------------------- Iteration      1(  15)  ---------------------------------------


    POTLOK:  cpu time    0.0160: real time    0.0257
    SETDIJ:  cpu time    0.0000: real time    0.0033
     EDDAV:  cpu time    3.7400: real time    3.7405
       DOS:  cpu time    0.0040: real time    0.0014
    CHARGE:  cpu time    0.1160: real time    0.1179
    MIXING:  cpu time    0.0040: real time    0.0010
    --------------------------------------------
      LOOP:  cpu time    3.8800: real time    3.8898

 eigenvalue-minimisations  :  7392
 total energy-change (2. order) :-0.2037815E-03  (-0.4530582E-03)
 number of electron     280.0000020 magnetization 
 augmentation part      138.7587343 magnetization 

 Broyden mixing:
  rms(total) = 0.43655E-02    rms(broyden)= 0.43642E-02
  rms(prec ) = 0.54481E-02
  weight for this iteration     100.00

 eigenvalues of (default mixing * dielectric matrix)
  average eigenvalue GAMMA=   1.0749
  2.5641  2.1067  1.0248  1.0248  0.9986  0.8104  0.8104  0.4278  0.4646  0.5173

 Free energy of the ion-electron system (eV)
  ---------------------------------------------------
  alpha Z        PSCENC =      1589.50695893
  Ewald energy   TEWEN  =    -25302.02511439
  -Hartree energ DENC   =     -9123.72323558
  -exchange      EXHF   =         0.00000000
  -V(xc)+E(xc)   XCENC  =      1008.49661633
  PAW double counting   =     35059.93945554   -40462.59644664
  entropy T*S    EENTRO =        -0.00179698
  eigenvalues    EBANDS =     -1317.72755085
  atomic energy  EATOM  =     38349.29185498
  Solvation  Ediel_sol  =         0.00000000
  ---------------------------------------------------
  free energy    TOTEN  =      -198.83925866 eV

  energy without entropy =     -198.83746168  energy(sigma->0) =     -198.83836017


--------------------------------------------------------------------------------------------------------




--------------------------------------- Iteration      1(  16)  ---------------------------------------


    POTLOK:  cpu time    0.0120: real time    0.0267
    SETDIJ:  cpu time    0.0040: real time    0.0034
     EDDAV:  cpu time    2.8320: real time    2.8323
       DOS:  cpu time    0.0000: real time    0.0014
    CHARGE:  cpu time    0.1200: real time    0.1179
    MIXING:  cpu time    0.0000: real time    0.0011
    --------------------------------------------
      LOOP:  cpu time    2.9680: real time    2.9827

 eigenvalue-minimisations  :  5096
 total energy-change (2. order) :-0.6358013E-04  (-0.1110845E-03)
 number of electron     280.0000020 magnetization 
 augmentation part      138.7572857 magnetization 

 Broyden mixing:
  rms(total) = 0.27268E-02    rms(broyden)= 0.27267E-02
  rms(prec ) = 0.32856E-02
  weight for this iteration     100.00

 eigenvalues of (default mixing * dielectric matrix)
  average eigenvalue GAMMA=   1.1008
  2.5133  2.0247  1.3712  1.3712  0.9201  0.9201  0.9416  0.6418  0.4233  0.4720
  0.5098

 Free energy of the ion-electron system (eV)
  ---------------------------------------------------
  alpha Z        PSCENC =      1589.50695893
  Ewald energy   TEWEN  =    -25302.02511439
  -Hartree energ DENC   =     -9123.93034927
  -exchange      EXHF   =         0.00000000
  -V(xc)+E(xc)   XCENC  =      1008.50850474
  PAW double counting   =     35059.56416997   -40462.30604002
  entropy T*S    EENTRO =        -0.00178674
  eigenvalues    EBANDS =     -1317.44752045
  atomic energy  EATOM  =     38349.29185498
  Solvation  Ediel_sol  =         0.00000000
  ---------------------------------------------------
  free energy    TOTEN  =      -198.83932224 eV

  energy without entropy =     -198.83753550  energy(sigma->0) =     -198.83842887


--------------------------------------------------------------------------------------------------------




--------------------------------------- Iteration      1(  17)  ---------------------------------------


    POTLOK:  cpu time    0.0160: real time    0.0226
    SETDIJ:  cpu time    0.0040: real time    0.0032
     EDDAV:  cpu time    2.6400: real time    2.6419
       DOS:  cpu time    0.0000: real time    0.0013
    --------------------------------------------
      LOOP:  cpu time    2.6600: real time    2.6690

 eigenvalue-minimisations  :  4592
 total energy-change (2. order) :-0.3765643E-04  (-0.4311358E-04)
 number of electron     280.0000020 magnetization 
 augmentation part      138.7572857 magnetization 

 Free energy of the ion-electron system (eV)
  ---------------------------------------------------
  alpha Z        PSCENC =      1589.50695893
  Ewald energy   TEWEN  =    -25302.02511439
  -Hartree energ DENC   =     -9124.20211036
  -exchange      EXHF   =         0.00000000
  -V(xc)+E(xc)   XCENC  =      1008.52324124
  PAW double counting   =     35059.77334855   -40462.56535818
  entropy T*S    EENTRO =        -0.00178616
  eigenvalues    EBANDS =     -1317.14039451
  atomic energy  EATOM  =     38349.29185498
  Solvation  Ediel_sol  =         0.00000000
  ---------------------------------------------------
  free energy    TOTEN  =      -198.83935990 eV

  energy without entropy =     -198.83757374  energy(sigma->0) =     -198.83846682


--------------------------------------------------------------------------------------------------------




 average (electrostatic) potential at core
  the test charge radii are     1.0314  0.7089
  (the norm of the test charge is              1.0000)
       1 -63.2973       2 -63.1814       3 -63.2183       4 -63.1322       5 -63.1489
       6 -63.3379       7 -63.2244       8 -63.2507       9 -63.1185      10 -63.1960
      11 -63.2525      12 -63.8287      13 -63.1122      14 -63.9173      15 -63.8380
      16 -63.9389      17 -62.1055      18 -62.2092      19 -62.1839      20 -62.1751
      21 -62.1553      22 -62.2447      23 -62.2106      24 -62.2299      25 -62.0385
      26 -62.2358      27 -62.2590      28 -62.2285      29 -62.2189      30 -62.2514
      31 -62.2674
 
 
 
 E-fermi :   4.9235     XC(G=0): -11.6621     alpha+bet :-13.5554


 k-point     1 :       0.1250    0.1250    0.2500
  band No.  band energies     occupation 
      1     -10.5490      2.00000
      2     -10.2625      2.00000
      3      -9.9610      2.00000
      4      -9.8640      2.00000
      5      -9.8099      2.00000
      6      -9.8029      2.00000
      7      -9.7345      2.00000
      8      -9.6739      2.00000
      9      -9.6362      2.00000
     10      -9.5991      2.00000
     11      -9.5572      2.00000
     12      -9.5409      2.00000
     13      -9.4954      2.00000
     14      -9.4209      2.00000
     15      -9.3919      2.00000
     16      -8.4697      2.00000
     17      -8.4452      2.00000
     18      -8.4283      2.00000
     19      -8.4017      2.00000
     20      -8.3900      2.00000
     21      -8.3525      2.00000
     22      -8.3489      2.00000
     23      -8.3173      2.00000
     24      -8.2770      2.00000
     25      -8.2615      2.00000
     26      -8.2390      2.00000
     27      -8.2260      2.00000
     28      -8.2124      2.00000
     29      -8.2001      2.00000
     30      -8.1844      2.00000
     31      -8.1673      2.00000
     32      -8.1510      2.00000
     33      -8.0970      2.00000
     34      -8.0564      2.00000
     35      -8.0230      2.00000
     36      -7.9005      2.00000
     37      -7.8903      2.00000
     38      -7.8423      2.00000
     39      -7.8353      2.00000
     40      -7.8278      2.00000
     41      -7.8231      2.00000
     42      -7.8080      2.00000
     43      -7.7986      2.00000
     44      -7.7825      2.00000
     45      -7.7760      2.00000
     46      -7.7671      2.00000
     47      -7.7555      2.00000
     48      -7.7489      2.00000
     49      -7.7452      2.00000
     50      -7.7296      2.00000
     51      -7.7217      2.00000
     52      -7.7078      2.00000
     53      -7.7045      2.00000
     54      -7.6913      2.00000
     55      -7.6812      2.00000
     56      -7.6727      2.00000
     57      -7.6643      2.00000
     58      -7.6560      2.00000
     59      -7.6509      2.00000
     60      -7.6388      2.00000
     61      -7.6327      2.00000
     62      -7.6262      2.00000
     63      -7.6192      2.00000
     64      -7.6113      2.00000
     65      -7.6037      2.00000
     66      -7.6001      2.00000
     67      -7.5895      2.00000
     68      -7.5756      2.00000
     69      -7.5694      2.00000
     70      -7.5654      2.00000
     71      -7.5561      2.00000
     72      -7.5487      2.00000
     73      -7.5411      2.00000
     74      -7.5300      2.00000
     75      -7.5168      2.00000
     76      -7.5068      2.00000
     77      -7.4996      2.00000
     78      -7.4915      2.00000
     79      -7.4863      2.00000
     80      -7.4768      2.00000
     81      -7.4717      2.00000
     82      -7.4623      2.00000
     83      -7.2144      2.00000
     84      -6.9378      2.00000
     85      -6.6990      2.00000
     86      -6.6234      2.00000
     87      -6.4948      2.00000
     88      -6.4288      2.00000
     89      -6.2938      2.00000
     90      -6.2001      2.00000
     91      -6.1635      2.00000
     92      -6.0407      2.00000
     93      -5.9098      2.00000
     94      -5.8319      2.00000
     95      -5.7933      2.00000
     96      -1.6797      2.00000
     97      -1.1531      2.00000
     98      -0.9926      2.00000
     99      -0.8441      2.00000
    100      -0.7564      2.00000
    101      -0.5478      2.00000
    102      -0.5081      2.00000
    103      -0.3897      2.00000
    104      -0.3279      2.00000
    105      -0.1799      2.00000
    106       0.2141      2.00000
    107       0.2827      2.00000
    108       0.4281      2.00000
    109       0.7435      2.00000
    110       1.1236      2.00000
    111       1.3270      2.00000
    112       1.4890      2.00000
    113       1.5729      2.00000
    114       1.8898      2.00000
    115       2.1314      2.00000
    116       2.2291      2.00000
    117       2.4366      2.00000
    118       2.5512      2.00000
    119       2.6926      2.00000
    120       2.8633      2.00000
    121       3.0947      2.00000
    122       3.1046      2.00000
    123       3.2431      2.00000
    124       3.2789      2.00000
    125       3.3688      2.00000
    126       3.4594      2.00000
    127       3.5493      2.00000
    128       3.6705      2.00000
    129       3.7791      2.00000
    130       3.9473      2.00000
    131       4.0297      2.00000
    132       4.0637      2.00000
    133       4.0783      2.00000
    134       4.2483      2.00000
    135       4.3227      2.00000
    136       4.4973      2.00000
    137       4.6775      2.00000
    138       4.8454      2.00000
    139       4.9258      0.74647
    140       5.0379      0.00000
    141       5.2153      0.00000
    142       7.7934      0.00000
    143       8.0651      0.00000
    144       8.5440      0.00000
    145       9.1491      0.00000
    146      10.0077      0.00000
    147      10.1885      0.00000
    148      10.6401      0.00000
    149      10.6642      0.00000
    150      10.8131      0.00000
    151      10.9066      0.00000
    152      11.1094      0.00000
    153      11.2083      0.00000
    154      11.3288      0.00000
    155      11.5463      0.00000
    156      11.7464      0.00000
    157      11.9899      0.00000
    158      12.2912      0.00000
    159      12.5098      0.00000
    160      12.6909      0.00000
    161      12.7982      0.00000
    162      13.0712      0.00000
    163      13.2586      0.00000
    164      13.3205      0.00000
    165      13.4671      0.00000
    166      13.6815      0.00000
    167      13.7645      0.00000
    168      13.9185      0.00000

 k-point     2 :       0.3750    0.1250    0.2500
  band No.  band energies     occupation 
      1     -10.3676      2.00000
      2     -10.1454      2.00000
      3     -10.0476      2.00000
      4      -9.8947      2.00000
      5      -9.8217      2.00000
      6      -9.7884      2.00000
      7      -9.7607      2.00000
      8      -9.7092      2.00000
      9      -9.6319      2.00000
     10      -9.5931      2.00000
     11      -9.5585      2.00000
     12      -9.5323      2.00000
     13      -9.5014      2.00000
     14      -9.4390      2.00000
     15      -9.3936      2.00000
     16      -8.4754      2.00000
     17      -8.4454      2.00000
     18      -8.4160      2.00000
     19      -8.3900      2.00000
     20      -8.3740      2.00000
     21      -8.3531      2.00000
     22      -8.3450      2.00000
     23      -8.3142      2.00000
     24      -8.2873      2.00000
     25      -8.2682      2.00000
     26      -8.2508      2.00000
     27      -8.2407      2.00000
     28      -8.2215      2.00000
     29      -8.2022      2.00000
     30      -8.1781      2.00000
     31      -8.1665      2.00000
     32      -8.1501      2.00000
     33      -8.1035      2.00000
     34      -8.0580      2.00000
     35      -8.0012      2.00000
     36      -7.8769      2.00000
     37      -7.8632      2.00000
     38      -7.8479      2.00000
     39      -7.8285      2.00000
     40      -7.8166      2.00000
     41      -7.8048      2.00000
     42      -7.7903      2.00000
     43      -7.7873      2.00000
     44      -7.7738      2.00000
     45      -7.7681      2.00000
     46      -7.7590      2.00000
     47      -7.7482      2.00000
     48      -7.7406      2.00000
     49      -7.7322      2.00000
     50      -7.7276      2.00000
     51      -7.7216      2.00000
     52      -7.7164      2.00000
     53      -7.7008      2.00000
     54      -7.6987      2.00000
     55      -7.6890      2.00000
     56      -7.6820      2.00000
     57      -7.6681      2.00000
     58      -7.6624      2.00000
     59      -7.6536      2.00000
     60      -7.6476      2.00000
     61      -7.6338      2.00000
     62      -7.6279      2.00000
     63      -7.6203      2.00000
     64      -7.6136      2.00000
     65      -7.6084      2.00000
     66      -7.5997      2.00000
     67      -7.5960      2.00000
     68      -7.5859      2.00000
     69      -7.5775      2.00000
     70      -7.5770      2.00000
     71      -7.5661      2.00000
     72      -7.5537      2.00000
     73      -7.5478      2.00000
     74      -7.5396      2.00000
     75      -7.5309      2.00000
     76      -7.5215      2.00000
     77      -7.5117      2.00000
     78      -7.4998      2.00000
     79      -7.4932      2.00000
     80      -7.4816      2.00000
     81      -7.4763      2.00000
     82      -7.4568      2.00000
     83      -7.4081      2.00000
     84      -7.2175      2.00000
     85      -6.9847      2.00000
     86      -6.6920      2.00000
     87      -6.4457      2.00000
     88      -6.2945      2.00000
     89      -6.2601      2.00000
     90      -6.1312      2.00000
     91      -6.0617      2.00000
     92      -6.0340      2.00000
     93      -5.9333      2.00000
     94      -5.8526      2.00000
     95      -5.7653      2.00000
     96      -1.6731      2.00000
     97      -0.9174      2.00000
     98      -0.7813      2.00000
     99      -0.6213      2.00000
    100      -0.5768      2.00000
    101      -0.4651      2.00000
    102      -0.4059      2.00000
    103      -0.1846      2.00000
    104      -0.1530      2.00000
    105       0.1165      2.00000
    106       0.3734      2.00000
    107       0.4840      2.00000
    108       0.7066      2.00000
    109       0.9887      2.00000
    110       1.1455      2.00000
    111       1.3606      2.00000
    112       1.4314      2.00000
    113       1.6999      2.00000
    114       1.8629      2.00000
    115       1.9753      2.00000
    116       2.0496      2.00000
    117       2.2783      2.00000
    118       2.4306      2.00000
    119       2.6158      2.00000
    120       2.7141      2.00000
    121       2.7834      2.00000
    122       2.9420      2.00000
    123       3.0257      2.00000
    124       3.2001      2.00000
    125       3.3013      2.00000
    126       3.3718      2.00000
    127       3.4068      2.00000
    128       3.4773      2.00000
    129       3.5709      2.00000
    130       3.6968      2.00000
    131       3.8284      2.00000
    132       3.9634      2.00000
    133       4.1356      2.00000
    134       4.1795      2.00000
    135       4.2074      2.00000
    136       4.3741      2.00000
    137       4.4646      2.00000
    138       4.6005      2.00000
    139       4.6862      2.00000
    140       4.8710      2.00000
    141       4.9933      0.00000
    142       7.0903      0.00000
    143       8.2648      0.00000
    144       8.4249      0.00000
    145       9.7206      0.00000
    146      10.4227      0.00000
    147      10.7019      0.00000
    148      10.8696      0.00000
    149      11.1013      0.00000
    150      11.2101      0.00000
    151      11.3303      0.00000
    152      11.4098      0.00000
    153      11.7012      0.00000
    154      11.8138      0.00000
    155      11.9920      0.00000
    156      12.1315      0.00000
    157      12.2284      0.00000
    158      12.4474      0.00000
    159      12.6175      0.00000
    160      12.7677      0.00000
    161      12.8978      0.00000
    162      13.1188      0.00000
    163      13.1913      0.00000
    164      13.3909      0.00000
    165      13.4278      0.00000
    166      13.5002      0.00000
    167      13.6674      0.00000
    168      13.8224      0.00000

 k-point     3 :      -0.3750    0.1250    0.2500
  band No.  band energies     occupation 
      1     -10.3621      2.00000
      2     -10.1708      2.00000
      3      -9.9952      2.00000
      4      -9.9272      2.00000
      5      -9.8426      2.00000
      6      -9.7849      2.00000
      7      -9.7439      2.00000
      8      -9.7042      2.00000
      9      -9.6371      2.00000
     10      -9.5943      2.00000
     11      -9.5606      2.00000
     12      -9.5304      2.00000
     13      -9.5015      2.00000
     14      -9.4368      2.00000
     15      -9.3942      2.00000
     16      -8.4739      2.00000
     17      -8.4457      2.00000
     18      -8.4196      2.00000
     19      -8.3904      2.00000
     20      -8.3722      2.00000
     21      -8.3533      2.00000
     22      -8.3344      2.00000
     23      -8.3211      2.00000
     24      -8.2884      2.00000
     25      -8.2743      2.00000
     26      -8.2512      2.00000
     27      -8.2359      2.00000
     28      -8.2208      2.00000
     29      -8.2040      2.00000
     30      -8.1738      2.00000
     31      -8.1692      2.00000
     32      -8.1499      2.00000
     33      -8.1035      2.00000
     34      -8.0618      2.00000
     35      -7.9973      2.00000
     36      -7.8761      2.00000
     37      -7.8633      2.00000
     38      -7.8470      2.00000
     39      -7.8279      2.00000
     40      -7.8152      2.00000
     41      -7.8070      2.00000
     42      -7.7970      2.00000
     43      -7.7828      2.00000
     44      -7.7744      2.00000
     45      -7.7699      2.00000
     46      -7.7590      2.00000
     47      -7.7540      2.00000
     48      -7.7414      2.00000
     49      -7.7280      2.00000
     50      -7.7225      2.00000
     51      -7.7160      2.00000
     52      -7.7127      2.00000
     53      -7.7043      2.00000
     54      -7.7013      2.00000
     55      -7.6871      2.00000
     56      -7.6779      2.00000
     57      -7.6758      2.00000
     58      -7.6592      2.00000
     59      -7.6514      2.00000
     60      -7.6422      2.00000
     61      -7.6377      2.00000
     62      -7.6296      2.00000
     63      -7.6236      2.00000
     64      -7.6170      2.00000
     65      -7.6114      2.00000
     66      -7.6037      2.00000
     67      -7.5951      2.00000
     68      -7.5858      2.00000
     69      -7.5756      2.00000
     70      -7.5708      2.00000
     71      -7.5664      2.00000
     72      -7.5631      2.00000
     73      -7.5517      2.00000
     74      -7.5392      2.00000
     75      -7.5285      2.00000
     76      -7.5192      2.00000
     77      -7.5104      2.00000
     78      -7.4970      2.00000
     79      -7.4928      2.00000
     80      -7.4902      2.00000
     81      -7.4725      2.00000
     82      -7.4566      2.00000
     83      -7.3929      2.00000
     84      -7.2292      2.00000
     85      -6.9863      2.00000
     86      -6.6730      2.00000
     87      -6.4483      2.00000
     88      -6.3107      2.00000
     89      -6.2698      2.00000
     90      -6.1205      2.00000
     91      -6.0758      2.00000
     92      -6.0129      2.00000
     93      -5.9312      2.00000
     94      -5.8503      2.00000
     95      -5.7703      2.00000
     96      -1.6706      2.00000
     97      -0.9317      2.00000
     98      -0.7711      2.00000
     99      -0.6172      2.00000
    100      -0.5735      2.00000
    101      -0.4577      2.00000
    102      -0.3912      2.00000
    103      -0.2608      2.00000
    104      -0.1533      2.00000
    105       0.1323      2.00000
    106       0.3145      2.00000
    107       0.5437      2.00000
    108       0.7388      2.00000
    109       0.9985      2.00000
    110       1.1580      2.00000
    111       1.3858      2.00000
    112       1.3937      2.00000
    113       1.7161      2.00000
    114       1.8539      2.00000
    115       2.0037      2.00000
    116       2.0390      2.00000
    117       2.3129      2.00000
    118       2.3833      2.00000
    119       2.6189      2.00000
    120       2.6699      2.00000
    121       2.7985      2.00000
    122       2.9176      2.00000
    123       3.0542      2.00000
    124       3.1715      2.00000
    125       3.2881      2.00000
    126       3.3695      2.00000
    127       3.3973      2.00000
    128       3.4958      2.00000
    129       3.5602      2.00000
    130       3.7530      2.00000
    131       3.8473      2.00000
    132       3.9484      2.00000
    133       4.1113      2.00000
    134       4.1933      2.00000
    135       4.2121      2.00000
    136       4.3790      2.00000
    137       4.4544      2.00000
    138       4.5791      2.00000
    139       4.6805      2.00000
    140       4.8948      1.99995
    141       4.9919      0.00000
    142       7.1377      0.00000
    143       8.2112      0.00000
    144       8.3849      0.00000
    145       9.7991      0.00000
    146      10.3838      0.00000
    147      10.6908      0.00000
    148      10.8912      0.00000
    149      11.0955      0.00000
    150      11.1730      0.00000
    151      11.3785      0.00000
    152      11.4441      0.00000
    153      11.6798      0.00000
    154      11.7882      0.00000
    155      11.8655      0.00000
    156      12.0571      0.00000
    157      12.2928      0.00000
    158      12.4803      0.00000
    159      12.6410      0.00000
    160      12.8840      0.00000
    161      12.9474      0.00000
    162      13.1448      0.00000
    163      13.2562      0.00000
    164      13.3714      0.00000
    165      13.4017      0.00000
    166      13.5049      0.00000
    167      13.6337      0.00000
    168      13.7332      0.00000

 k-point     4 :      -0.1250    0.1250    0.2500
  band No.  band energies     occupation 
      1     -10.5477      2.00000
      2     -10.2649      2.00000
      3      -9.9438      2.00000
      4      -9.8735      2.00000
      5      -9.8362      2.00000
      6      -9.7903      2.00000
      7      -9.7289      2.00000
      8      -9.6682      2.00000
      9      -9.6386      2.00000
     10      -9.6039      2.00000
     11      -9.5564      2.00000
     12      -9.5418      2.00000
     13      -9.4939      2.00000
     14      -9.4186      2.00000
     15      -9.3931      2.00000
     16      -8.4681      2.00000
     17      -8.4447      2.00000
     18      -8.4333      2.00000
     19      -8.3987      2.00000
     20      -8.3891      2.00000
     21      -8.3549      2.00000
     22      -8.3422      2.00000
     23      -8.3227      2.00000
     24      -8.2758      2.00000
     25      -8.2661      2.00000
     26      -8.2377      2.00000
     27      -8.2198      2.00000
     28      -8.2132      2.00000
     29      -8.2058      2.00000
     30      -8.1813      2.00000
     31      -8.1685      2.00000
     32      -8.1508      2.00000
     33      -8.0933      2.00000
     34      -8.0666      2.00000
     35      -8.0159      2.00000
     36      -7.9013      2.00000
     37      -7.8894      2.00000
     38      -7.8407      2.00000
     39      -7.8385      2.00000
     40      -7.8306      2.00000
     41      -7.8165      2.00000
     42      -7.8042      2.00000
     43      -7.8009      2.00000
     44      -7.7872      2.00000
     45      -7.7752      2.00000
     46      -7.7682      2.00000
     47      -7.7579      2.00000
     48      -7.7482      2.00000
     49      -7.7415      2.00000
     50      -7.7309      2.00000
     51      -7.7181      2.00000
     52      -7.7089      2.00000
     53      -7.6977      2.00000
     54      -7.6941      2.00000
     55      -7.6857      2.00000
     56      -7.6722      2.00000
     57      -7.6651      2.00000
     58      -7.6525      2.00000
     59      -7.6474      2.00000
     60      -7.6437      2.00000
     61      -7.6347      2.00000
     62      -7.6281      2.00000
     63      -7.6199      2.00000
     64      -7.6164      2.00000
     65      -7.6037      2.00000
     66      -7.5995      2.00000
     67      -7.5853      2.00000
     68      -7.5773      2.00000
     69      -7.5700      2.00000
     70      -7.5618      2.00000
     71      -7.5574      2.00000
     72      -7.5505      2.00000
     73      -7.5381      2.00000
     74      -7.5310      2.00000
     75      -7.5171      2.00000
     76      -7.5108      2.00000
     77      -7.4990      2.00000
     78      -7.4893      2.00000
     79      -7.4863      2.00000
     80      -7.4769      2.00000
     81      -7.4704      2.00000
     82      -7.4624      2.00000
     83      -7.2130      2.00000
     84      -6.9326      2.00000
     85      -6.7082      2.00000
     86      -6.6156      2.00000
     87      -6.4998      2.00000
     88      -6.4340      2.00000
     89      -6.2794      2.00000
     90      -6.2076      2.00000
     91      -6.1605      2.00000
     92      -6.0437      2.00000
     93      -5.9060      2.00000
     94      -5.8281      2.00000
     95      -5.7989      2.00000
     96      -1.6736      2.00000
     97      -1.1743      2.00000
     98      -0.9860      2.00000
     99      -0.8386      2.00000
    100      -0.7567      2.00000
    101      -0.5438      2.00000
    102      -0.5077      2.00000
    103      -0.4249      2.00000
    104      -0.3139      2.00000
    105      -0.1960      2.00000
    106       0.2566      2.00000
    107       0.2879      2.00000
    108       0.4663      2.00000
    109       0.6552      2.00000
    110       1.1239      2.00000
    111       1.3811      2.00000
    112       1.4560      2.00000
    113       1.5650      2.00000
    114       1.9695      2.00000
    115       2.1081      2.00000
    116       2.2630      2.00000
    117       2.4309      2.00000
    118       2.5225      2.00000
    119       2.7096      2.00000
    120       2.8342      2.00000
    121       3.0365      2.00000
    122       3.1031      2.00000
    123       3.2167      2.00000
    124       3.2645      2.00000
    125       3.3813      2.00000
    126       3.5142      2.00000
    127       3.5926      2.00000
    128       3.6858      2.00000
    129       3.7807      2.00000
    130       3.9228      2.00000
    131       3.9888      2.00000
    132       4.0466      2.00000
    133       4.1185      2.00000
    134       4.2141      2.00000
    135       4.3120      2.00000
    136       4.5316      2.00000
    137       4.6828      2.00000
    138       4.8319      2.00000
    139       4.9255      0.77669
    140       5.0487      0.00000
    141       5.2261      0.00000
    142       7.8506      0.00000
    143       8.0504      0.00000
    144       8.4282      0.00000
    145       9.2174      0.00000
    146      10.0264      0.00000
    147      10.1737      0.00000
    148      10.6110      0.00000
    149      10.6843      0.00000
    150      10.7828      0.00000
    151      10.9312      0.00000
    152      11.1853      0.00000
    153      11.2295      0.00000
    154      11.3017      0.00000
    155      11.3905      0.00000
    156      11.7446      0.00000
    157      12.0323      0.00000
    158      12.3030      0.00000
    159      12.5107      0.00000
    160      12.6875      0.00000
    161      12.8609      0.00000
    162      13.0686      0.00000
    163      13.2538      0.00000
    164      13.3905      0.00000
    165      13.5064      0.00000
    166      13.6603      0.00000
    167      13.7634      0.00000
    168      13.9218      0.00000

 k-point     5 :       0.1250    0.3750    0.2500
  band No.  band energies     occupation 
      1     -10.3045      2.00000
      2     -10.1167      2.00000
      3      -9.9636      2.00000
      4      -9.8713      2.00000
      5      -9.8404      2.00000
      6      -9.8013      2.00000
      7      -9.7472      2.00000
      8      -9.6840      2.00000
      9      -9.6442      2.00000
     10      -9.6172      2.00000
     11      -9.5880      2.00000
     12      -9.5598      2.00000
     13      -9.5059      2.00000
     14      -9.4340      2.00000
     15      -9.4022      2.00000
     16      -8.4962      2.00000
     17      -8.4232      2.00000
     18      -8.4108      2.00000
     19      -8.3907      2.00000
     20      -8.3727      2.00000
     21      -8.3604      2.00000
     22      -8.3393      2.00000
     23      -8.3187      2.00000
     24      -8.2847      2.00000
     25      -8.2596      2.00000
     26      -8.2418      2.00000
     27      -8.2254      2.00000
     28      -8.2121      2.00000
     29      -8.1961      2.00000
     30      -8.1818      2.00000
     31      -8.1692      2.00000
     32      -8.1380      2.00000
     33      -8.0891      2.00000
     34      -8.0581      2.00000
     35      -8.0064      2.00000
     36      -7.8729      2.00000
     37      -7.8530      2.00000
     38      -7.8337      2.00000
     39      -7.8258      2.00000
     40      -7.8204      2.00000
     41      -7.8020      2.00000
     42      -7.7968      2.00000
     43      -7.7880      2.00000
     44      -7.7779      2.00000
     45      -7.7719      2.00000
     46      -7.7616      2.00000
     47      -7.7560      2.00000
     48      -7.7484      2.00000
     49      -7.7318      2.00000
     50      -7.7215      2.00000
     51      -7.7156      2.00000
     52      -7.7053      2.00000
     53      -7.6982      2.00000
     54      -7.6875      2.00000
     55      -7.6825      2.00000
     56      -7.6745      2.00000
     57      -7.6642      2.00000
     58      -7.6606      2.00000
     59      -7.6559      2.00000
     60      -7.6403      2.00000
     61      -7.6356      2.00000
     62      -7.6271      2.00000
     63      -7.6180      2.00000
     64      -7.6069      2.00000
     65      -7.6022      2.00000
     66      -7.5933      2.00000
     67      -7.5876      2.00000
     68      -7.5812      2.00000
     69      -7.5767      2.00000
     70      -7.5614      2.00000
     71      -7.5521      2.00000
     72      -7.5452      2.00000
     73      -7.5279      2.00000
     74      -7.5212      2.00000
     75      -7.5141      2.00000
     76      -7.4934      2.00000
     77      -7.4926      2.00000
     78      -7.4854      2.00000
     79      -7.4756      2.00000
     80      -7.4694      2.00000
     81      -7.4628      2.00000
     82      -7.4410      2.00000
     83      -7.2667      2.00000
     84      -7.0669      2.00000
     85      -6.9739      2.00000
     86      -6.7164      2.00000
     87      -6.5753      2.00000
     88      -6.5234      2.00000
     89      -6.3889      2.00000
     90      -6.2891      2.00000
     91      -6.2390      2.00000
     92      -6.1304      2.00000
     93      -6.0210      2.00000
     94      -5.9027      2.00000
     95      -5.8717      2.00000
     96      -1.8219      2.00000
     97      -1.1459      2.00000
     98      -1.0144      2.00000
     99      -0.8964      2.00000
    100      -0.8338      2.00000
    101      -0.7085      2.00000
    102      -0.5791      2.00000
    103      -0.3941      2.00000
    104      -0.2191      2.00000
    105       0.0429      2.00000
    106       0.2548      2.00000
    107       0.5064      2.00000
    108       0.7527      2.00000
    109       0.9629      2.00000
    110       1.3152      2.00000
    111       1.3707      2.00000
    112       1.6138      2.00000
    113       1.9139      2.00000
    114       2.3796      2.00000
    115       2.4541      2.00000
    116       2.6007      2.00000
    117       2.6714      2.00000
    118       2.7336      2.00000
    119       2.9141      2.00000
    120       3.0289      2.00000
    121       3.1137      2.00000
    122       3.2009      2.00000
    123       3.2542      2.00000
    124       3.3036      2.00000
    125       3.4410      2.00000
    126       3.5231      2.00000
    127       3.5818      2.00000
    128       3.7600      2.00000
    129       3.8746      2.00000
    130       3.9164      2.00000
    131       3.9615      2.00000
    132       4.0238      2.00000
    133       4.0772      2.00000
    134       4.1741      2.00000
    135       4.2220      2.00000
    136       4.2768      2.00000
    137       4.3691      2.00000
    138       4.4810      2.00000
    139       4.6221      2.00000
    140       4.8239      2.00000
    141       4.9184      1.52977
    142       7.5480      0.00000
    143       8.2094      0.00000
    144       8.6765      0.00000
    145       9.8823      0.00000
    146       9.9493      0.00000
    147      10.1666      0.00000
    148      10.3636      0.00000
    149      10.5025      0.00000
    150      10.7453      0.00000
    151      10.8371      0.00000
    152      10.9217      0.00000
    153      11.0435      0.00000
    154      11.1368      0.00000
    155      11.3308      0.00000
    156      11.4382      0.00000
    157      11.7116      0.00000
    158      11.7736      0.00000
    159      12.0959      0.00000
    160      12.4002      0.00000
    161      12.5710      0.00000
    162      12.8117      0.00000
    163      13.1727      0.00000
    164      13.2142      0.00000
    165      13.3137      0.00000
    166      13.5187      0.00000
    167      13.6488      0.00000
    168      13.8186      0.00000

 k-point     6 :       0.3750    0.3750    0.2500
  band No.  band energies     occupation 
      1     -10.1739      2.00000
      2     -10.0365      2.00000
      3      -9.9753      2.00000
      4      -9.8907      2.00000
      5      -9.8377      2.00000
      6      -9.7752      2.00000
      7      -9.7400      2.00000
      8      -9.6878      2.00000
      9      -9.6682      2.00000
     10      -9.6304      2.00000
     11      -9.5829      2.00000
     12      -9.5569      2.00000
     13      -9.5171      2.00000
     14      -9.4567      2.00000
     15      -9.4067      2.00000
     16      -8.4937      2.00000
     17      -8.4307      2.00000
     18      -8.4099      2.00000
     19      -8.3788      2.00000
     20      -8.3693      2.00000
     21      -8.3543      2.00000
     22      -8.3327      2.00000
     23      -8.3072      2.00000
     24      -8.2839      2.00000
     25      -8.2595      2.00000
     26      -8.2513      2.00000
     27      -8.2353      2.00000
     28      -8.2236      2.00000
     29      -8.2008      2.00000
     30      -8.1873      2.00000
     31      -8.1633      2.00000
     32      -8.1400      2.00000
     33      -8.0968      2.00000
     34      -8.0622      2.00000
     35      -7.9730      2.00000
     36      -7.8641      2.00000
     37      -7.8406      2.00000
     38      -7.8274      2.00000
     39      -7.8186      2.00000
     40      -7.8056      2.00000
     41      -7.7942      2.00000
     42      -7.7826      2.00000
     43      -7.7752      2.00000
     44      -7.7660      2.00000
     45      -7.7601      2.00000
     46      -7.7552      2.00000
     47      -7.7508      2.00000
     48      -7.7401      2.00000
     49      -7.7315      2.00000
     50      -7.7249      2.00000
     51      -7.7143      2.00000
     52      -7.7100      2.00000
     53      -7.7005      2.00000
     54      -7.6967      2.00000
     55      -7.6818      2.00000
     56      -7.6773      2.00000
     57      -7.6710      2.00000
     58      -7.6666      2.00000
     59      -7.6587      2.00000
     60      -7.6440      2.00000
     61      -7.6347      2.00000
     62      -7.6300      2.00000
     63      -7.6232      2.00000
     64      -7.6157      2.00000
     65      -7.6074      2.00000
     66      -7.5988      2.00000
     67      -7.5892      2.00000
     68      -7.5864      2.00000
     69      -7.5717      2.00000
     70      -7.5616      2.00000
     71      -7.5539      2.00000
     72      -7.5471      2.00000
     73      -7.5447      2.00000
     74      -7.5227      2.00000
     75      -7.5170      2.00000
     76      -7.5088      2.00000
     77      -7.4987      2.00000
     78      -7.4916      2.00000
     79      -7.4785      2.00000
     80      -7.4763      2.00000
     81      -7.4672      2.00000
     82      -7.3368      2.00000
     83      -7.2426      2.00000
     84      -7.0939      2.00000
     85      -7.0252      2.00000
     86      -6.8835      2.00000
     87      -6.7976      2.00000
     88      -6.6855      2.00000
     89      -6.5498      2.00000
     90      -6.4495      2.00000
     91      -6.3017      2.00000
     92      -6.1393      2.00000
     93      -6.0054      2.00000
     94      -5.8823      2.00000
     95      -5.7771      2.00000
     96      -1.9904      2.00000
     97      -0.6777      2.00000
     98      -0.5322      2.00000
     99      -0.5059      2.00000
    100      -0.3696      2.00000
    101      -0.3257      2.00000
    102      -0.0880      2.00000
    103      -0.0662      2.00000
    104       0.0872      2.00000
    105       0.4348      2.00000
    106       0.5000      2.00000
    107       0.6545      2.00000
    108       0.8114      2.00000
    109       1.0398      2.00000
    110       1.3050      2.00000
    111       1.4286      2.00000
    112       1.5108      2.00000
    113       1.6795      2.00000
    114       1.8354      2.00000
    115       2.0851      2.00000
    116       2.1914      2.00000
    117       2.3083      2.00000
    118       2.4462      2.00000
    119       2.6350      2.00000
    120       2.7430      2.00000
    121       2.8144      2.00000
    122       2.8707      2.00000
    123       3.0218      2.00000
    124       3.1458      2.00000
    125       3.2701      2.00000
    126       3.4396      2.00000
    127       3.5036      2.00000
    128       3.6201      2.00000
    129       3.6624      2.00000
    130       3.8185      2.00000
    131       3.9048      2.00000
    132       3.9463      2.00000
    133       4.0299      2.00000
    134       4.1345      2.00000
    135       4.1811      2.00000
    136       4.2450      2.00000
    137       4.2914      2.00000
    138       4.4052      2.00000
    139       4.4990      2.00000
    140       4.6385      2.00000
    141       4.7128      2.00000
    142       7.4995      0.00000
    143       7.8075      0.00000
    144       8.4804      0.00000
    145      10.1810      0.00000
    146      10.2790      0.00000
    147      10.6306      0.00000
    148      10.7983      0.00000
    149      10.9744      0.00000
    150      11.1560      0.00000
    151      11.2305      0.00000
    152      11.3557      0.00000
    153      11.5279      0.00000
    154      11.6673      0.00000
    155      11.7392      0.00000
    156      11.8902      0.00000
    157      12.1329      0.00000
    158      12.3196      0.00000
    159      12.3788      0.00000
    160      12.5361      0.00000
    161      12.7399      0.00000
    162      12.9919      0.00000
    163      13.1153      0.00000
    164      13.2414      0.00000
    165      13.3165      0.00000
    166      13.5023      0.00000
    167      13.5692      0.00000
    168      13.6789      0.00000

 k-point     7 :      -0.3750    0.3750    0.2500
  band No.  band energies     occupation 
      1     -10.1675      2.00000
      2     -10.0529      2.00000
      3      -9.9404      2.00000
      4      -9.9198      2.00000
      5      -9.8338      2.00000
      6      -9.7757      2.00000
      7      -9.7322      2.00000
      8      -9.6979      2.00000
      9      -9.6702      2.00000
     10      -9.6327      2.00000
     11      -9.5732      2.00000
     12      -9.5592      2.00000
     13      -9.5205      2.00000
     14      -9.4534      2.00000
     15      -9.4073      2.00000
     16      -8.4932      2.00000
     17      -8.4353      2.00000
     18      -8.4078      2.00000
     19      -8.3770      2.00000
     20      -8.3702      2.00000
     21      -8.3505      2.00000
     22      -8.3357      2.00000
     23      -8.3037      2.00000
     24      -8.2798      2.00000
     25      -8.2665      2.00000
     26      -8.2560      2.00000
     27      -8.2312      2.00000
     28      -8.2227      2.00000
     29      -8.2027      2.00000
     30      -8.1856      2.00000
     31      -8.1645      2.00000
     32      -8.1406      2.00000
     33      -8.0960      2.00000
     34      -8.0645      2.00000
     35      -7.9694      2.00000
     36      -7.8635      2.00000
     37      -7.8401      2.00000
     38      -7.8264      2.00000
     39      -7.8183      2.00000
     40      -7.8080      2.00000
     41      -7.7947      2.00000
     42      -7.7788      2.00000
     43      -7.7718      2.00000
     44      -7.7691      2.00000
     45      -7.7619      2.00000
     46      -7.7538      2.00000
     47      -7.7506      2.00000
     48      -7.7464      2.00000
     49      -7.7273      2.00000
     50      -7.7248      2.00000
     51      -7.7159      2.00000
     52      -7.7064      2.00000
     53      -7.6998      2.00000
     54      -7.6936      2.00000
     55      -7.6865      2.00000
     56      -7.6811      2.00000
     57      -7.6725      2.00000
     58      -7.6597      2.00000
     59      -7.6524      2.00000
     60      -7.6499      2.00000
     61      -7.6393      2.00000
     62      -7.6350      2.00000
     63      -7.6223      2.00000
     64      -7.6106      2.00000
     65      -7.6062      2.00000
     66      -7.5992      2.00000
     67      -7.5950      2.00000
     68      -7.5834      2.00000
     69      -7.5754      2.00000
     70      -7.5611      2.00000
     71      -7.5550      2.00000
     72      -7.5507      2.00000
     73      -7.5426      2.00000
     74      -7.5316      2.00000
     75      -7.5158      2.00000
     76      -7.5062      2.00000
     77      -7.4963      2.00000
     78      -7.4888      2.00000
     79      -7.4830      2.00000
     80      -7.4739      2.00000
     81      -7.4595      2.00000
     82      -7.3551      2.00000
     83      -7.2215      2.00000
     84      -7.0857      2.00000
     85      -7.0214      2.00000
     86      -6.8934      2.00000
     87      -6.8273      2.00000
     88      -6.6458      2.00000
     89      -6.5611      2.00000
     90      -6.4525      2.00000
     91      -6.2903      2.00000
     92      -6.1480      2.00000
     93      -6.0011      2.00000
     94      -5.8870      2.00000
     95      -5.7779      2.00000
     96      -1.9878      2.00000
     97      -0.6607      2.00000
     98      -0.5961      2.00000
     99      -0.5163      2.00000
    100      -0.3776      2.00000
    101      -0.2784      2.00000
    102      -0.1196      2.00000
    103      -0.0776      2.00000
    104       0.0965      2.00000
    105       0.4771      2.00000
    106       0.5448      2.00000
    107       0.6355      2.00000
    108       0.8441      2.00000
    109       0.9938      2.00000
    110       1.3514      2.00000
    111       1.4167      2.00000
    112       1.5399      2.00000
    113       1.6409      2.00000
    114       1.8207      2.00000
    115       2.1076      2.00000
    116       2.1677      2.00000
    117       2.2993      2.00000
    118       2.4884      2.00000
    119       2.5629      2.00000
    120       2.6905      2.00000
    121       2.8552      2.00000
    122       2.8774      2.00000
    123       2.9821      2.00000
    124       3.1836      2.00000
    125       3.2614      2.00000
    126       3.4125      2.00000
    127       3.5672      2.00000
    128       3.6054      2.00000
    129       3.7038      2.00000
    130       3.7528      2.00000
    131       3.8898      2.00000
    132       3.9913      2.00000
    133       4.0441      2.00000
    134       4.1200      2.00000
    135       4.2022      2.00000
    136       4.2489      2.00000
    137       4.2957      2.00000
    138       4.4094      2.00000
    139       4.4897      2.00000
    140       4.6366      2.00000
    141       4.7145      2.00000
    142       7.4970      0.00000
    143       7.8222      0.00000
    144       8.4534      0.00000
    145      10.1661      0.00000
    146      10.3079      0.00000
    147      10.5831      0.00000
    148      10.8396      0.00000
    149      10.9748      0.00000
    150      11.0638      0.00000
    151      11.1892      0.00000
    152      11.3230      0.00000
    153      11.4586      0.00000
    154      11.7333      0.00000
    155      11.7899      0.00000
    156      11.9148      0.00000
    157      12.0949      0.00000
    158      12.3543      0.00000
    159      12.5442      0.00000
    160      12.6135      0.00000
    161      12.7688      0.00000
    162      12.9550      0.00000
    163      13.0482      0.00000
    164      13.2037      0.00000
    165      13.4177      0.00000
    166      13.4459      0.00000
    167      13.5448      0.00000
    168      13.6532      0.00000

 k-point     8 :      -0.1250    0.3750    0.2500
  band No.  band energies     occupation 
      1     -10.3025      2.00000
      2     -10.1181      2.00000
      3      -9.9587      2.00000
      4      -9.8747      2.00000
      5      -9.8470      2.00000
      6      -9.7970      2.00000
      7      -9.7420      2.00000
      8      -9.6892      2.00000
      9      -9.6451      2.00000
     10      -9.6255      2.00000
     11      -9.5808      2.00000
     12      -9.5573      2.00000
     13      -9.5088      2.00000
     14      -9.4308      2.00000
     15      -9.4034      2.00000
     16      -8.4961      2.00000
     17      -8.4267      2.00000
     18      -8.4127      2.00000
     19      -8.3814      2.00000
     20      -8.3738      2.00000
     21      -8.3574      2.00000
     22      -8.3487      2.00000
     23      -8.3116      2.00000
     24      -8.2849      2.00000
     25      -8.2628      2.00000
     26      -8.2414      2.00000
     27      -8.2253      2.00000
     28      -8.2135      2.00000
     29      -8.1962      2.00000
     30      -8.1804      2.00000
     31      -8.1715      2.00000
     32      -8.1378      2.00000
     33      -8.0856      2.00000
     34      -8.0659      2.00000
     35      -8.0000      2.00000
     36      -7.8727      2.00000
     37      -7.8510      2.00000
     38      -7.8345      2.00000
     39      -7.8291      2.00000
     40      -7.8182      2.00000
     41      -7.8042      2.00000
     42      -7.7963      2.00000
     43      -7.7845      2.00000
     44      -7.7808      2.00000
     45      -7.7657      2.00000
     46      -7.7623      2.00000
     47      -7.7553      2.00000
     48      -7.7536      2.00000
     49      -7.7258      2.00000
     50      -7.7201      2.00000
     51      -7.7164      2.00000
     52      -7.7065      2.00000
     53      -7.6973      2.00000
     54      -7.6902      2.00000
     55      -7.6810      2.00000
     56      -7.6790      2.00000
     57      -7.6668      2.00000
     58      -7.6580      2.00000
     59      -7.6550      2.00000
     60      -7.6441      2.00000
     61      -7.6365      2.00000
     62      -7.6228      2.00000
     63      -7.6170      2.00000
     64      -7.6124      2.00000
     65      -7.6066      2.00000
     66      -7.5953      2.00000
     67      -7.5896      2.00000
     68      -7.5806      2.00000
     69      -7.5679      2.00000
     70      -7.5646      2.00000
     71      -7.5566      2.00000
     72      -7.5433      2.00000
     73      -7.5263      2.00000
     74      -7.5207      2.00000
     75      -7.5163      2.00000
     76      -7.4935      2.00000
     77      -7.4905      2.00000
     78      -7.4827      2.00000
     79      -7.4768      2.00000
     80      -7.4698      2.00000
     81      -7.4616      2.00000
     82      -7.4416      2.00000
     83      -7.2653      2.00000
     84      -7.0638      2.00000
     85      -6.9695      2.00000
     86      -6.7259      2.00000
     87      -6.5580      2.00000
     88      -6.5406      2.00000
     89      -6.3928      2.00000
     90      -6.2838      2.00000
     91      -6.2215      2.00000
     92      -6.1276      2.00000
     93      -6.0206      2.00000
     94      -5.9282      2.00000
     95      -5.8620      2.00000
     96      -1.8225      2.00000
     97      -1.1552      2.00000
     98      -1.0097      2.00000
     99      -0.8960      2.00000
    100      -0.8162      2.00000
    101      -0.7206      2.00000
    102      -0.6218      2.00000
    103      -0.4051      2.00000
    104      -0.1816      2.00000
    105       0.1015      2.00000
    106       0.2333      2.00000
    107       0.4582      2.00000
    108       0.7670      2.00000
    109       0.9695      2.00000
    110       1.3274      2.00000
    111       1.3831      2.00000
    112       1.6214      2.00000
    113       1.9073      2.00000
    114       2.3822      2.00000
    115       2.4757      2.00000
    116       2.5824      2.00000
    117       2.6591      2.00000
    118       2.7293      2.00000
    119       2.8641      2.00000
    120       3.0415      2.00000
    121       3.1137      2.00000
    122       3.1963      2.00000
    123       3.2437      2.00000
    124       3.3200      2.00000
    125       3.4348      2.00000
    126       3.5026      2.00000
    127       3.5790      2.00000
    128       3.7913      2.00000
    129       3.8560      2.00000
    130       3.9297      2.00000
    131       3.9768      2.00000
    132       4.0352      2.00000
    133       4.0691      2.00000
    134       4.1904      2.00000
    135       4.2179      2.00000
    136       4.2811      2.00000
    137       4.3944      2.00000
    138       4.4522      2.00000
    139       4.6260      2.00000
    140       4.8239      2.00000
    141       4.9259      0.74095
    142       7.5582      0.00000
    143       8.2085      0.00000
    144       8.6322      0.00000
    145       9.8433      0.00000
    146       9.9893      0.00000
    147      10.2268      0.00000
    148      10.3897      0.00000
    149      10.5074      0.00000
    150      10.6904      0.00000
    151      10.7638      0.00000
    152      10.9047      0.00000
    153      10.9632      0.00000
    154      11.1947      0.00000
    155      11.3153      0.00000
    156      11.4719      0.00000
    157      11.7281      0.00000
    158      11.7893      0.00000
    159      12.0730      0.00000
    160      12.5002      0.00000
    161      12.5885      0.00000
    162      12.7684      0.00000
    163      13.1894      0.00000
    164      13.2424      0.00000
    165      13.3683      0.00000
    166      13.4860      0.00000
    167      13.6814      0.00000
    168      13.8273      0.00000

 k-point     9 :       0.1250   -0.3750    0.2500
  band No.  band energies     occupation 
      1     -10.3076      2.00000
      2     -10.0913      2.00000
      3      -9.9918      2.00000
      4      -9.8837      2.00000
      5      -9.8378      2.00000
      6      -9.7814      2.00000
      7      -9.7437      2.00000
      8      -9.6788      2.00000
      9      -9.6485      2.00000
     10      -9.6305      2.00000
     11      -9.6047      2.00000
     12      -9.5255      2.00000
     13      -9.5198      2.00000
     14      -9.4342      2.00000
     15      -9.4017      2.00000
     16      -8.4960      2.00000
     17      -8.4263      2.00000
     18      -8.4128      2.00000
     19      -8.3814      2.00000
     20      -8.3740      2.00000
     21      -8.3577      2.00000
     22      -8.3495      2.00000
     23      -8.3115      2.00000
     24      -8.2850      2.00000
     25      -8.2632      2.00000
     26      -8.2417      2.00000
     27      -8.2253      2.00000
     28      -8.2124      2.00000
     29      -8.1957      2.00000
     30      -8.1808      2.00000
     31      -8.1719      2.00000
     32      -8.1367      2.00000
     33      -8.0855      2.00000
     34      -8.0658      2.00000
     35      -8.0003      2.00000
     36      -7.8721      2.00000
     37      -7.8516      2.00000
     38      -7.8334      2.00000
     39      -7.8278      2.00000
     40      -7.8180      2.00000
     41      -7.8070      2.00000
     42      -7.7975      2.00000
     43      -7.7852      2.00000
     44      -7.7780      2.00000
     45      -7.7669      2.00000
     46      -7.7604      2.00000
     47      -7.7560      2.00000
     48      -7.7517      2.00000
     49      -7.7336      2.00000
     50      -7.7185      2.00000
     51      -7.7118      2.00000
     52      -7.7084      2.00000
     53      -7.6992      2.00000
     54      -7.6927      2.00000
     55      -7.6850      2.00000
     56      -7.6732      2.00000
     57      -7.6694      2.00000
     58      -7.6614      2.00000
     59      -7.6529      2.00000
     60      -7.6437      2.00000
     61      -7.6347      2.00000
     62      -7.6250      2.00000
     63      -7.6143      2.00000
     64      -7.6123      2.00000
     65      -7.6040      2.00000
     66      -7.5939      2.00000
     67      -7.5863      2.00000
     68      -7.5773      2.00000
     69      -7.5717      2.00000
     70      -7.5656      2.00000
     71      -7.5575      2.00000
     72      -7.5446      2.00000
     73      -7.5281      2.00000
     74      -7.5224      2.00000
     75      -7.5114      2.00000
     76      -7.4944      2.00000
     77      -7.4892      2.00000
     78      -7.4828      2.00000
     79      -7.4781      2.00000
     80      -7.4663      2.00000
     81      -7.4626      2.00000
     82      -7.4310      2.00000
     83      -7.2841      2.00000
     84      -7.0723      2.00000
     85      -6.9485      2.00000
     86      -6.7188      2.00000
     87      -6.5903      2.00000
     88      -6.5215      2.00000
     89      -6.4021      2.00000
     90      -6.2884      2.00000
     91      -6.2246      2.00000
     92      -6.1148      2.00000
     93      -6.0130      2.00000
     94      -5.9235      2.00000
     95      -5.8698      2.00000
     96      -1.8399      2.00000
     97      -1.1758      2.00000
     98      -0.9773      2.00000
     99      -0.8712      2.00000
    100      -0.8141      2.00000
    101      -0.6996      2.00000
    102      -0.6345      2.00000
    103      -0.3493      2.00000
    104      -0.2337      2.00000
    105       0.0292      2.00000
    106       0.2514      2.00000
    107       0.5251      2.00000
    108       0.7023      2.00000
    109       0.9158      2.00000
    110       1.3206      2.00000
    111       1.3852      2.00000
    112       1.6767      2.00000
    113       1.9744      2.00000
    114       2.4197      2.00000
    115       2.4852      2.00000
    116       2.5552      2.00000
    117       2.6397      2.00000
    118       2.7529      2.00000
    119       2.8277      2.00000
    120       2.9680      2.00000
    121       3.1252      2.00000
    122       3.1645      2.00000
    123       3.2890      2.00000
    124       3.3286      2.00000
    125       3.4280      2.00000
    126       3.5537      2.00000
    127       3.6146      2.00000
    128       3.7163      2.00000
    129       3.8306      2.00000
    130       3.9029      2.00000
    131       3.9505      2.00000
    132       4.0366      2.00000
    133       4.1197      2.00000
    134       4.1896      2.00000
    135       4.2549      2.00000
    136       4.2989      2.00000
    137       4.4104      2.00000
    138       4.4510      2.00000
    139       4.6057      2.00000
    140       4.7885      2.00000
    141       4.9323      0.21541
    142       7.5348      0.00000
    143       8.2644      0.00000
    144       8.6452      0.00000
    145       9.8161      0.00000
    146       9.9241      0.00000
    147      10.1606      0.00000
    148      10.3398      0.00000
    149      10.5806      0.00000
    150      10.7311      0.00000
    151      10.8290      0.00000
    152      10.9053      0.00000
    153      11.0394      0.00000
    154      11.2526      0.00000
    155      11.3423      0.00000
    156      11.4598      0.00000
    157      11.6782      0.00000
    158      11.7886      0.00000
    159      12.0361      0.00000
    160      12.3850      0.00000
    161      12.5035      0.00000
    162      12.8949      0.00000
    163      13.0940      0.00000
    164      13.2606      0.00000
    165      13.3975      0.00000
    166      13.5655      0.00000
    167      13.5776      0.00000
    168      13.6828      0.00000

 k-point    10 :       0.3750   -0.3750    0.2500
  band No.  band energies     occupation 
      1     -10.1742      2.00000
      2     -10.0293      2.00000
      3      -9.9516      2.00000
      4      -9.9300      2.00000
      5      -9.8363      2.00000
      6      -9.7664      2.00000
      7      -9.7355      2.00000
      8      -9.6951      2.00000
      9      -9.6761      2.00000
     10      -9.6187      2.00000
     11      -9.5943      2.00000
     12      -9.5483      2.00000
     13      -9.5168      2.00000
     14      -9.4579      2.00000
     15      -9.4060      2.00000
     16      -8.4931      2.00000
     17      -8.4351      2.00000
     18      -8.4077      2.00000
     19      -8.3773      2.00000
     20      -8.3703      2.00000
     21      -8.3514      2.00000
     22      -8.3357      2.00000
     23      -8.3033      2.00000
     24      -8.2808      2.00000
     25      -8.2672      2.00000
     26      -8.2565      2.00000
     27      -8.2302      2.00000
     28      -8.2209      2.00000
     29      -8.2026      2.00000
     30      -8.1873      2.00000
     31      -8.1636      2.00000
     32      -8.1390      2.00000
     33      -8.0967      2.00000
     34      -8.0643      2.00000
     35      -7.9692      2.00000
     36      -7.8637      2.00000
     37      -7.8404      2.00000
     38      -7.8262      2.00000
     39      -7.8189      2.00000
     40      -7.8069      2.00000
     41      -7.7939      2.00000
     42      -7.7821      2.00000
     43      -7.7732      2.00000
     44      -7.7655      2.00000
     45      -7.7565      2.00000
     46      -7.7524      2.00000
     47      -7.7521      2.00000
     48      -7.7450      2.00000
     49      -7.7330      2.00000
     50      -7.7266      2.00000
     51      -7.7188      2.00000
     52      -7.7078      2.00000
     53      -7.6994      2.00000
     54      -7.6897      2.00000
     55      -7.6840      2.00000
     56      -7.6819      2.00000
     57      -7.6730      2.00000
     58      -7.6661      2.00000
     59      -7.6546      2.00000
     60      -7.6488      2.00000
     61      -7.6346      2.00000
     62      -7.6291      2.00000
     63      -7.6234      2.00000
     64      -7.6159      2.00000
     65      -7.6058      2.00000
     66      -7.6000      2.00000
     67      -7.5925      2.00000
     68      -7.5799      2.00000
     69      -7.5768      2.00000
     70      -7.5693      2.00000
     71      -7.5582      2.00000
     72      -7.5457      2.00000
     73      -7.5376      2.00000
     74      -7.5294      2.00000
     75      -7.5164      2.00000
     76      -7.5058      2.00000
     77      -7.5014      2.00000
     78      -7.4910      2.00000
     79      -7.4866      2.00000
     80      -7.4726      2.00000
     81      -7.4595      2.00000
     82      -7.3267      2.00000
     83      -7.2336      2.00000
     84      -7.1192      2.00000
     85      -7.0018      2.00000
     86      -6.8917      2.00000
     87      -6.7904      2.00000
     88      -6.6925      2.00000
     89      -6.5560      2.00000
     90      -6.4502      2.00000
     91      -6.3017      2.00000
     92      -6.1265      2.00000
     93      -6.0056      2.00000
     94      -5.8870      2.00000
     95      -5.7760      2.00000
     96      -2.0005      2.00000
     97      -0.7213      2.00000
     98      -0.5468      2.00000
     99      -0.4357      2.00000
    100      -0.3496      2.00000
    101      -0.2916      2.00000
    102      -0.1571      2.00000
    103      -0.0839      2.00000
    104       0.1018      2.00000
    105       0.4727      2.00000
    106       0.5393      2.00000
    107       0.5886      2.00000
    108       0.8232      2.00000
    109       0.9695      2.00000
    110       1.3438      2.00000
    111       1.4485      2.00000
    112       1.5410      2.00000
    113       1.7030      2.00000
    114       1.8187      2.00000
    115       2.1310      2.00000
    116       2.2020      2.00000
    117       2.2724      2.00000
    118       2.4363      2.00000
    119       2.6161      2.00000
    120       2.7252      2.00000
    121       2.8020      2.00000
    122       2.8393      2.00000
    123       3.0064      2.00000
    124       3.1514      2.00000
    125       3.2351      2.00000
    126       3.4299      2.00000
    127       3.5551      2.00000
    128       3.6436      2.00000
    129       3.6754      2.00000
    130       3.8077      2.00000
    131       3.8844      2.00000
    132       3.9974      2.00000
    133       4.0147      2.00000
    134       4.1021      2.00000
    135       4.1652      2.00000
    136       4.2668      2.00000
    137       4.3001      2.00000
    138       4.4281      2.00000
    139       4.5043      2.00000
    140       4.6383      2.00000
    141       4.7155      2.00000
    142       7.4947      0.00000
    143       7.7598      0.00000
    144       8.5464      0.00000
    145      10.1383      0.00000
    146      10.2772      0.00000
    147      10.5563      0.00000
    148      10.7990      0.00000
    149      10.9388      0.00000
    150      11.1230      0.00000
    151      11.2800      0.00000
    152      11.3827      0.00000
    153      11.5595      0.00000
    154      11.6687      0.00000
    155      11.7410      0.00000
    156      11.9598      0.00000
    157      12.1033      0.00000
    158      12.2157      0.00000
    159      12.4946      0.00000
    160      12.6353      0.00000
    161      12.8417      0.00000
    162      12.9714      0.00000
    163      13.0560      0.00000
    164      13.2269      0.00000
    165      13.3139      0.00000
    166      13.4105      0.00000
    167      13.5438      0.00000
    168      13.6669      0.00000

 k-point    11 :      -0.3750   -0.3750    0.2500
  band No.  band energies     occupation 
      1     -10.1743      2.00000
      2     -10.0450      2.00000
      3      -9.9537      2.00000
      4      -9.8977      2.00000
      5      -9.8319      2.00000
      6      -9.8012      2.00000
      7      -9.7316      2.00000
      8      -9.6921      2.00000
      9      -9.6579      2.00000
     10      -9.6232      2.00000
     11      -9.5910      2.00000
     12      -9.5491      2.00000
     13      -9.5265      2.00000
     14      -9.4535      2.00000
     15      -9.4073      2.00000
     16      -8.4937      2.00000
     17      -8.4306      2.00000
     18      -8.4098      2.00000
     19      -8.3788      2.00000
     20      -8.3699      2.00000
     21      -8.3544      2.00000
     22      -8.3326      2.00000
     23      -8.3075      2.00000
     24      -8.2836      2.00000
     25      -8.2598      2.00000
     26      -8.2509      2.00000
     27      -8.2354      2.00000
     28      -8.2240      2.00000
     29      -8.2008      2.00000
     30      -8.1867      2.00000
     31      -8.1628      2.00000
     32      -8.1399      2.00000
     33      -8.0970      2.00000
     34      -8.0628      2.00000
     35      -7.9725      2.00000
     36      -7.8649      2.00000
     37      -7.8410      2.00000
     38      -7.8260      2.00000
     39      -7.8196      2.00000
     40      -7.8057      2.00000
     41      -7.7923      2.00000
     42      -7.7837      2.00000
     43      -7.7713      2.00000
     44      -7.7692      2.00000
     45      -7.7636      2.00000
     46      -7.7553      2.00000
     47      -7.7498      2.00000
     48      -7.7368      2.00000
     49      -7.7323      2.00000
     50      -7.7208      2.00000
     51      -7.7172      2.00000
     52      -7.7073      2.00000
     53      -7.7008      2.00000
     54      -7.6976      2.00000
     55      -7.6845      2.00000
     56      -7.6764      2.00000
     57      -7.6730      2.00000
     58      -7.6680      2.00000
     59      -7.6525      2.00000
     60      -7.6490      2.00000
     61      -7.6362      2.00000
     62      -7.6300      2.00000
     63      -7.6232      2.00000
     64      -7.6165      2.00000
     65      -7.6043      2.00000
     66      -7.5972      2.00000
     67      -7.5874      2.00000
     68      -7.5860      2.00000
     69      -7.5727      2.00000
     70      -7.5634      2.00000
     71      -7.5590      2.00000
     72      -7.5496      2.00000
     73      -7.5324      2.00000
     74      -7.5284      2.00000
     75      -7.5202      2.00000
     76      -7.5051      2.00000
     77      -7.4983      2.00000
     78      -7.4940      2.00000
     79      -7.4837      2.00000
     80      -7.4759      2.00000
     81      -7.4623      2.00000
     82      -7.3417      2.00000
     83      -7.2111      2.00000
     84      -7.1282      2.00000
     85      -7.0134      2.00000
     86      -6.8908      2.00000
     87      -6.8044      2.00000
     88      -6.6662      2.00000
     89      -6.5750      2.00000
     90      -6.4426      2.00000
     91      -6.2715      2.00000
     92      -6.1589      2.00000
     93      -6.0073      2.00000
     94      -5.8818      2.00000
     95      -5.7757      2.00000
     96      -1.9942      2.00000
     97      -0.6499      2.00000
     98      -0.5570      2.00000
     99      -0.4928      2.00000
    100      -0.3874      2.00000
    101      -0.2793      2.00000
    102      -0.1603      2.00000
    103      -0.0656      2.00000
    104       0.0762      2.00000
    105       0.4756      2.00000
    106       0.5585      2.00000
    107       0.6169      2.00000
    108       0.8054      2.00000
    109       1.0250      2.00000
    110       1.3236      2.00000
    111       1.4031      2.00000
    112       1.5098      2.00000
    113       1.6995      2.00000
    114       1.8274      2.00000
    115       2.0945      2.00000
    116       2.2013      2.00000
    117       2.3041      2.00000
    118       2.4827      2.00000
    119       2.6010      2.00000
    120       2.6895      2.00000
    121       2.8230      2.00000
    122       2.8957      2.00000
    123       3.0026      2.00000
    124       3.1601      2.00000
    125       3.2301      2.00000
    126       3.4539      2.00000
    127       3.5245      2.00000
    128       3.6067      2.00000
    129       3.6993      2.00000
    130       3.7811      2.00000
    131       3.9191      2.00000
    132       3.9411      2.00000
    133       4.0727      2.00000
    134       4.0916      2.00000
    135       4.1951      2.00000
    136       4.2185      2.00000
    137       4.2871      2.00000
    138       4.4278      2.00000
    139       4.4881      2.00000
    140       4.6548      2.00000
    141       4.7235      2.00000
    142       7.4839      0.00000
    143       7.7801      0.00000
    144       8.5227      0.00000
    145      10.1795      0.00000
    146      10.3394      0.00000
    147      10.5957      0.00000
    148      10.7318      0.00000
    149      10.9865      0.00000
    150      11.0970      0.00000
    151      11.2132      0.00000
    152      11.3729      0.00000
    153      11.5242      0.00000
    154      11.6692      0.00000
    155      11.7838      0.00000
    156      11.9849      0.00000
    157      12.1893      0.00000
    158      12.2529      0.00000
    159      12.4339      0.00000
    160      12.5829      0.00000
    161      12.7352      0.00000
    162      12.9448      0.00000
    163      13.0530      0.00000
    164      13.2338      0.00000
    165      13.2746      0.00000
    166      13.4119      0.00000
    167      13.5072      0.00000
    168      13.7297      0.00000

 k-point    12 :      -0.1250   -0.3750    0.2500
  band No.  band energies     occupation 
      1     -10.3084      2.00000
      2     -10.0950      2.00000
      3      -9.9941      2.00000
      4      -9.8589      2.00000
      5      -9.8468      2.00000
      6      -9.7940      2.00000
      7      -9.7479      2.00000
      8      -9.6756      2.00000
      9      -9.6346      2.00000
     10      -9.6297      2.00000
     11      -9.6093      2.00000
     12      -9.5289      2.00000
     13      -9.5222      2.00000
     14      -9.4321      2.00000
     15      -9.4029      2.00000
     16      -8.4962      2.00000
     17      -8.4233      2.00000
     18      -8.4103      2.00000
     19      -8.3907      2.00000
     20      -8.3729      2.00000
     21      -8.3608      2.00000
     22      -8.3397      2.00000
     23      -8.3185      2.00000
     24      -8.2848      2.00000
     25      -8.2589      2.00000
     26      -8.2418      2.00000
     27      -8.2246      2.00000
     28      -8.2138      2.00000
     29      -8.1965      2.00000
     30      -8.1811      2.00000
     31      -8.1690      2.00000
     32      -8.1378      2.00000
     33      -8.0890      2.00000
     34      -8.0586      2.00000
     35      -8.0062      2.00000
     36      -7.8731      2.00000
     37      -7.8536      2.00000
     38      -7.8313      2.00000
     39      -7.8263      2.00000
     40      -7.8198      2.00000
     41      -7.8044      2.00000
     42      -7.7953      2.00000
     43      -7.7890      2.00000
     44      -7.7825      2.00000
     45      -7.7666      2.00000
     46      -7.7633      2.00000
     47      -7.7555      2.00000
     48      -7.7476      2.00000
     49      -7.7337      2.00000
     50      -7.7188      2.00000
     51      -7.7167      2.00000
     52      -7.7056      2.00000
     53      -7.6969      2.00000
     54      -7.6888      2.00000
     55      -7.6825      2.00000
     56      -7.6734      2.00000
     57      -7.6649      2.00000
     58      -7.6612      2.00000
     59      -7.6528      2.00000
     60      -7.6445      2.00000
     61      -7.6375      2.00000
     62      -7.6274      2.00000
     63      -7.6170      2.00000
     64      -7.6098      2.00000
     65      -7.6013      2.00000
     66      -7.5905      2.00000
     67      -7.5883      2.00000
     68      -7.5765      2.00000
     69      -7.5734      2.00000
     70      -7.5634      2.00000
     71      -7.5572      2.00000
     72      -7.5434      2.00000
     73      -7.5268      2.00000
     74      -7.5198      2.00000
     75      -7.5104      2.00000
     76      -7.4987      2.00000
     77      -7.4932      2.00000
     78      -7.4863      2.00000
     79      -7.4743      2.00000
     80      -7.4662      2.00000
     81      -7.4623      2.00000
     82      -7.4339      2.00000
     83      -7.2844      2.00000
     84      -7.0756      2.00000
     85      -6.9403      2.00000
     86      -6.7455      2.00000
     87      -6.5757      2.00000
     88      -6.5122      2.00000
     89      -6.4118      2.00000
     90      -6.2642      2.00000
     91      -6.2296      2.00000
     92      -6.1292      2.00000
     93      -6.0263      2.00000
     94      -5.9090      2.00000
     95      -5.8726      2.00000
     96      -1.8260      2.00000
     97      -1.1431      2.00000
     98      -0.9811      2.00000
     99      -0.8973      2.00000
    100      -0.8594      2.00000
    101      -0.7156      2.00000
    102      -0.5778      2.00000
    103      -0.3421      2.00000
    104      -0.2733      2.00000
    105       0.0132      2.00000
    106       0.2926      2.00000
    107       0.5399      2.00000
    108       0.7127      2.00000
    109       0.9140      2.00000
    110       1.3397      2.00000
    111       1.3771      2.00000
    112       1.6287      2.00000
    113       1.9502      2.00000
    114       2.4134      2.00000
    115       2.4852      2.00000
    116       2.5447      2.00000
    117       2.6441      2.00000
    118       2.7506      2.00000
    119       2.8611      2.00000
    120       2.9867      2.00000
    121       3.1015      2.00000
    122       3.1922      2.00000
    123       3.2935      2.00000
    124       3.3565      2.00000
    125       3.4261      2.00000
    126       3.5572      2.00000
    127       3.6222      2.00000
    128       3.7135      2.00000
    129       3.8035      2.00000
    130       3.9333      2.00000
    131       3.9543      2.00000
    132       4.0273      2.00000
    133       4.1049      2.00000
    134       4.1532      2.00000
    135       4.2333      2.00000
    136       4.3146      2.00000
    137       4.3899      2.00000
    138       4.4848      2.00000
    139       4.6016      2.00000
    140       4.7855      2.00000
    141       4.9328      0.18861
    142       7.5124      0.00000
    143       8.2843      0.00000
    144       8.6550      0.00000
    145       9.8444      0.00000
    146      10.0177      0.00000
    147      10.0569      0.00000
    148      10.3679      0.00000
    149      10.6054      0.00000
    150      10.6991      0.00000
    151      10.8355      0.00000
    152      10.9798      0.00000
    153      11.0272      0.00000
    154      11.1119      0.00000
    155      11.3101      0.00000
    156      11.4792      0.00000
    157      11.7037      0.00000
    158      11.7837      0.00000
    159      12.0241      0.00000
    160      12.4634      0.00000
    161      12.5311      0.00000
    162      12.8629      0.00000
    163      13.0615      0.00000
    164      13.2934      0.00000
    165      13.3707      0.00000
    166      13.5227      0.00000
    167      13.6036      0.00000
    168      13.6745      0.00000

 k-point    13 :       0.1250   -0.1250    0.2500
  band No.  band energies     occupation 
      1     -10.5490      2.00000
      2     -10.2590      2.00000
      3      -9.9643      2.00000
      4      -9.8624      2.00000
      5      -9.8297      2.00000
      6      -9.7870      2.00000
      7      -9.7274      2.00000
      8      -9.6752      2.00000
      9      -9.6420      2.00000
     10      -9.5989      2.00000
     11      -9.5692      2.00000
     12      -9.5249      2.00000
     13      -9.4984      2.00000
     14      -9.4210      2.00000
     15      -9.3915      2.00000
     16      -8.4681      2.00000
     17      -8.4445      2.00000
     18      -8.4332      2.00000
     19      -8.3989      2.00000
     20      -8.3893      2.00000
     21      -8.3550      2.00000
     22      -8.3424      2.00000
     23      -8.3232      2.00000
     24      -8.2757      2.00000
     25      -8.2662      2.00000
     26      -8.2375      2.00000
     27      -8.2190      2.00000
     28      -8.2138      2.00000
     29      -8.2061      2.00000
     30      -8.1821      2.00000
     31      -8.1681      2.00000
     32      -8.1497      2.00000
     33      -8.0929      2.00000
     34      -8.0666      2.00000
     35      -8.0156      2.00000
     36      -7.9012      2.00000
     37      -7.8893      2.00000
     38      -7.8404      2.00000
     39      -7.8376      2.00000
     40      -7.8285      2.00000
     41      -7.8175      2.00000
     42      -7.8051      2.00000
     43      -7.8021      2.00000
     44      -7.7878      2.00000
     45      -7.7769      2.00000
     46      -7.7696      2.00000
     47      -7.7598      2.00000
     48      -7.7488      2.00000
     49      -7.7419      2.00000
     50      -7.7236      2.00000
     51      -7.7193      2.00000
     52      -7.7070      2.00000
     53      -7.7014      2.00000
     54      -7.6923      2.00000
     55      -7.6836      2.00000
     56      -7.6731      2.00000
     57      -7.6655      2.00000
     58      -7.6588      2.00000
     59      -7.6481      2.00000
     60      -7.6387      2.00000
     61      -7.6357      2.00000
     62      -7.6261      2.00000
     63      -7.6187      2.00000
     64      -7.6115      2.00000
     65      -7.6069      2.00000
     66      -7.6043      2.00000
     67      -7.5896      2.00000
     68      -7.5776      2.00000
     69      -7.5682      2.00000
     70      -7.5606      2.00000
     71      -7.5569      2.00000
     72      -7.5493      2.00000
     73      -7.5367      2.00000
     74      -7.5293      2.00000
     75      -7.5180      2.00000
     76      -7.5072      2.00000
     77      -7.4973      2.00000
     78      -7.4918      2.00000
     79      -7.4873      2.00000
     80      -7.4791      2.00000
     81      -7.4690      2.00000
     82      -7.4605      2.00000
     83      -7.2194      2.00000
     84      -6.9322      2.00000
     85      -6.7135      2.00000
     86      -6.6018      2.00000
     87      -6.4974      2.00000
     88      -6.4290      2.00000
     89      -6.3041      2.00000
     90      -6.2137      2.00000
     91      -6.1591      2.00000
     92      -6.0120      2.00000
     93      -5.9252      2.00000
     94      -5.8283      2.00000
     95      -5.7948      2.00000
     96      -1.7124      2.00000
     97      -1.0621      2.00000
     98      -1.0067      2.00000
     99      -0.8755      2.00000
    100      -0.7439      2.00000
    101      -0.6020      2.00000
    102      -0.4324      2.00000
    103      -0.3855      2.00000
    104      -0.3391      2.00000
    105      -0.2331      2.00000
    106       0.1687      2.00000
    107       0.3122      2.00000
    108       0.4334      2.00000
    109       0.7130      2.00000
    110       1.1399      2.00000
    111       1.3899      2.00000
    112       1.4946      2.00000
    113       1.5425      2.00000
    114       1.8884      2.00000
    115       2.1225      2.00000
    116       2.2533      2.00000
    117       2.4071      2.00000
    118       2.6104      2.00000
    119       2.7170      2.00000
    120       2.8542      2.00000
    121       3.0187      2.00000
    122       3.1627      2.00000
    123       3.2225      2.00000
    124       3.2647      2.00000
    125       3.3491      2.00000
    126       3.4677      2.00000
    127       3.6064      2.00000
    128       3.6466      2.00000
    129       3.8042      2.00000
    130       3.9070      2.00000
    131       3.9970      2.00000
    132       4.0407      2.00000
    133       4.1258      2.00000
    134       4.2283      2.00000
    135       4.3041      2.00000
    136       4.5352      2.00000
    137       4.6790      2.00000
    138       4.8316      2.00000
    139       4.9108      1.92828
    140       5.0432      0.00000
    141       5.2282      0.00000
    142       7.7931      0.00000
    143       8.1432      0.00000
    144       8.4546      0.00000
    145       9.1392      0.00000
    146       9.9377      0.00000
    147      10.2552      0.00000
    148      10.6008      0.00000
    149      10.6968      0.00000
    150      10.8457      0.00000
    151      10.9908      0.00000
    152      11.1311      0.00000
    153      11.2436      0.00000
    154      11.3313      0.00000
    155      11.4943      0.00000
    156      11.7430      0.00000
    157      11.9228      0.00000
    158      12.2088      0.00000
    159      12.5107      0.00000
    160      12.6517      0.00000
    161      12.8417      0.00000
    162      13.0925      0.00000
    163      13.2004      0.00000
    164      13.3649      0.00000
    165      13.5913      0.00000
    166      13.6367      0.00000
    167      13.7591      0.00000
    168      13.8691      0.00000

 k-point    14 :       0.3750   -0.1250    0.2500
  band No.  band energies     occupation 
      1     -10.3662      2.00000
      2     -10.1443      2.00000
      3     -10.0465      2.00000
      4      -9.8969      2.00000
      5      -9.8304      2.00000
      6      -9.7842      2.00000
      7      -9.7572      2.00000
      8      -9.7099      2.00000
      9      -9.6367      2.00000
     10      -9.5891      2.00000
     11      -9.5572      2.00000
     12      -9.5364      2.00000
     13      -9.4983      2.00000
     14      -9.4391      2.00000
     15      -9.3932      2.00000
     16      -8.4739      2.00000
     17      -8.4455      2.00000
     18      -8.4195      2.00000
     19      -8.3907      2.00000
     20      -8.3728      2.00000
     21      -8.3536      2.00000
     22      -8.3345      2.00000
     23      -8.3213      2.00000
     24      -8.2886      2.00000
     25      -8.2745      2.00000
     26      -8.2515      2.00000
     27      -8.2349      2.00000
     28      -8.2202      2.00000
     29      -8.2036      2.00000
     30      -8.1781      2.00000
     31      -8.1663      2.00000
     32      -8.1479      2.00000
     33      -8.1042      2.00000
     34      -8.0617      2.00000
     35      -7.9970      2.00000
     36      -7.8770      2.00000
     37      -7.8646      2.00000
     38      -7.8471      2.00000
     39      -7.8241      2.00000
     40      -7.8123      2.00000
     41      -7.8056      2.00000
     42      -7.7980      2.00000
     43      -7.7851      2.00000
     44      -7.7760      2.00000
     45      -7.7667      2.00000
     46      -7.7579      2.00000
     47      -7.7526      2.00000
     48      -7.7380      2.00000
     49      -7.7338      2.00000
     50      -7.7227      2.00000
     51      -7.7207      2.00000
     52      -7.7149      2.00000
     53      -7.7080      2.00000
     54      -7.7000      2.00000
     55      -7.6885      2.00000
     56      -7.6758      2.00000
     57      -7.6718      2.00000
     58      -7.6614      2.00000
     59      -7.6537      2.00000
     60      -7.6432      2.00000
     61      -7.6358      2.00000
     62      -7.6304      2.00000
     63      -7.6264      2.00000
     64      -7.6117      2.00000
     65      -7.6090      2.00000
     66      -7.6061      2.00000
     67      -7.5940      2.00000
     68      -7.5897      2.00000
     69      -7.5766      2.00000
     70      -7.5728      2.00000
     71      -7.5682      2.00000
     72      -7.5611      2.00000
     73      -7.5398      2.00000
     74      -7.5380      2.00000
     75      -7.5313      2.00000
     76      -7.5205      2.00000
     77      -7.5100      2.00000
     78      -7.5002      2.00000
     79      -7.4916      2.00000
     80      -7.4850      2.00000
     81      -7.4705      2.00000
     82      -7.4563      2.00000
     83      -7.4047      2.00000
     84      -7.2184      2.00000
     85      -6.9916      2.00000
     86      -6.6834      2.00000
     87      -6.4414      2.00000
     88      -6.3108      2.00000
     89      -6.2662      2.00000
     90      -6.1204      2.00000
     91      -6.0607      2.00000
     92      -6.0356      2.00000
     93      -5.9255      2.00000
     94      -5.8497      2.00000
     95      -5.7695      2.00000
     96      -1.6916      2.00000
     97      -0.8809      2.00000
     98      -0.7866      2.00000
     99      -0.6440      2.00000
    100      -0.5198      2.00000
    101      -0.4870      2.00000
    102      -0.4192      2.00000
    103      -0.2333      2.00000
    104      -0.1242      2.00000
    105       0.1257      2.00000
    106       0.3299      2.00000
    107       0.4467      2.00000
    108       0.7928      2.00000
    109       0.9792      2.00000
    110       1.1612      2.00000
    111       1.3563      2.00000
    112       1.4073      2.00000
    113       1.7073      2.00000
    114       1.8550      2.00000
    115       1.9826      2.00000
    116       2.0858      2.00000
    117       2.3139      2.00000
    118       2.4114      2.00000
    119       2.6065      2.00000
    120       2.6720      2.00000
    121       2.7861      2.00000
    122       2.9177      2.00000
    123       3.0790      2.00000
    124       3.2245      2.00000
    125       3.2797      2.00000
    126       3.3353      2.00000
    127       3.3943      2.00000
    128       3.4372      2.00000
    129       3.6123      2.00000
    130       3.7335      2.00000
    131       3.8812      2.00000
    132       3.9315      2.00000
    133       4.0844      2.00000
    134       4.1900      2.00000
    135       4.2137      2.00000
    136       4.3311      2.00000
    137       4.4786      2.00000
    138       4.6056      2.00000
    139       4.6831      2.00000
    140       4.8837      2.00000
    141       5.0029      0.00000
    142       7.1300      0.00000
    143       8.1210      0.00000
    144       8.5122      0.00000
    145       9.7299      0.00000
    146      10.4528      0.00000
    147      10.6320      0.00000
    148      10.9398      0.00000
    149      11.1014      0.00000
    150      11.1781      0.00000
    151      11.3138      0.00000
    152      11.4841      0.00000
    153      11.7211      0.00000
    154      11.8122      0.00000
    155      11.9371      0.00000
    156      12.1496      0.00000
    157      12.1836      0.00000
    158      12.4019      0.00000
    159      12.5946      0.00000
    160      12.8793      0.00000
    161      12.9153      0.00000
    162      13.0228      0.00000
    163      13.2179      0.00000
    164      13.3731      0.00000
    165      13.4555      0.00000
    166      13.6495      0.00000
    167      13.7249      0.00000
    168      13.8038      0.00000

 k-point    15 :      -0.3750   -0.1250    0.2500
  band No.  band energies     occupation 
      1     -10.3648      2.00000
      2     -10.1700      2.00000
      3      -9.9930      2.00000
      4      -9.9256      2.00000
      5      -9.8426      2.00000
      6      -9.7874      2.00000
      7      -9.7444      2.00000
      8      -9.7080      2.00000
      9      -9.6316      2.00000
     10      -9.5846      2.00000
     11      -9.5636      2.00000
     12      -9.5381      2.00000
     13      -9.4994      2.00000
     14      -9.4381      2.00000
     15      -9.3939      2.00000
     16      -8.4754      2.00000
     17      -8.4454      2.00000
     18      -8.4157      2.00000
     19      -8.3906      2.00000
     20      -8.3736      2.00000
     21      -8.3535      2.00000
     22      -8.3451      2.00000
     23      -8.3143      2.00000
     24      -8.2876      2.00000
     25      -8.2684      2.00000
     26      -8.2517      2.00000
     27      -8.2405      2.00000
     28      -8.2207      2.00000
     29      -8.2015      2.00000
     30      -8.1780      2.00000
     31      -8.1676      2.00000
     32      -8.1483      2.00000
     33      -8.1040      2.00000
     34      -8.0592      2.00000
     35      -8.0012      2.00000
     36      -7.8773      2.00000
     37      -7.8649      2.00000
     38      -7.8474      2.00000
     39      -7.8277      2.00000
     40      -7.8148      2.00000
     41      -7.8034      2.00000
     42      -7.7904      2.00000
     43      -7.7873      2.00000
     44      -7.7736      2.00000
     45      -7.7649      2.00000
     46      -7.7588      2.00000
     47      -7.7494      2.00000
     48      -7.7429      2.00000
     49      -7.7341      2.00000
     50      -7.7251      2.00000
     51      -7.7213      2.00000
     52      -7.7135      2.00000
     53      -7.7033      2.00000
     54      -7.6947      2.00000
     55      -7.6880      2.00000
     56      -7.6813      2.00000
     57      -7.6670      2.00000
     58      -7.6628      2.00000
     59      -7.6583      2.00000
     60      -7.6442      2.00000
     61      -7.6381      2.00000
     62      -7.6292      2.00000
     63      -7.6216      2.00000
     64      -7.6152      2.00000
     65      -7.6087      2.00000
     66      -7.6005      2.00000
     67      -7.5964      2.00000
     68      -7.5847      2.00000
     69      -7.5804      2.00000
     70      -7.5716      2.00000
     71      -7.5700      2.00000
     72      -7.5613      2.00000
     73      -7.5491      2.00000
     74      -7.5409      2.00000
     75      -7.5305      2.00000
     76      -7.5176      2.00000
     77      -7.5084      2.00000
     78      -7.5044      2.00000
     79      -7.4956      2.00000
     80      -7.4819      2.00000
     81      -7.4691      2.00000
     82      -7.4586      2.00000
     83      -7.3886      2.00000
     84      -7.2330      2.00000
     85      -6.9891      2.00000
     86      -6.6748      2.00000
     87      -6.4441      2.00000
     88      -6.3052      2.00000
     89      -6.2685      2.00000
     90      -6.1408      2.00000
     91      -6.0764      2.00000
     92      -5.9998      2.00000
     93      -5.9329      2.00000
     94      -5.8550      2.00000
     95      -5.7647      2.00000
     96      -1.6808      2.00000
     97      -0.9093      2.00000
     98      -0.7836      2.00000
     99      -0.6632      2.00000
    100      -0.5141      2.00000
    101      -0.4469      2.00000
    102      -0.3960      2.00000
    103      -0.2374      2.00000
    104      -0.1428      2.00000
    105       0.1097      2.00000
    106       0.3187      2.00000
    107       0.4676      2.00000
    108       0.7858      2.00000
    109       1.0289      2.00000
    110       1.1641      2.00000
    111       1.2903      2.00000
    112       1.4620      2.00000
    113       1.6910      2.00000
    114       1.8766      2.00000
    115       1.9777      2.00000
    116       2.0288      2.00000
    117       2.2760      2.00000
    118       2.4215      2.00000
    119       2.6276      2.00000
    120       2.6646      2.00000
    121       2.7726      2.00000
    122       2.9192      2.00000
    123       3.0587      2.00000
    124       3.2421      2.00000
    125       3.2984      2.00000
    126       3.3562      2.00000
    127       3.4270      2.00000
    128       3.5005      2.00000
    129       3.5559      2.00000
    130       3.7430      2.00000
    131       3.8380      2.00000
    132       3.9362      2.00000
    133       4.0950      2.00000
    134       4.1583      2.00000
    135       4.2209      2.00000
    136       4.3233      2.00000
    137       4.4537      2.00000
    138       4.6010      2.00000
    139       4.7191      2.00000
    140       4.9100      1.94455
    141       4.9930      0.00000
    142       7.0969      0.00000
    143       8.1605      0.00000
    144       8.5183      0.00000
    145       9.7658      0.00000
    146      10.4463      0.00000
    147      10.6009      0.00000
    148      10.9320      0.00000
    149      11.0554      0.00000
    150      11.1956      0.00000
    151      11.3090      0.00000
    152      11.4486      0.00000
    153      11.6431      0.00000
    154      11.8251      0.00000
    155      11.9536      0.00000
    156      12.1059      0.00000
    157      12.2833      0.00000
    158      12.4958      0.00000
    159      12.6712      0.00000
    160      12.8607      0.00000
    161      12.9762      0.00000
    162      13.0457      0.00000
    163      13.1954      0.00000
    164      13.2506      0.00000
    165      13.4203      0.00000
    166      13.5363      0.00000
    167      13.6895      0.00000
    168      13.9002      0.00000

 k-point    16 :      -0.1250   -0.1250    0.2500
  band No.  band energies     occupation 
      1     -10.5491      2.00000
      2     -10.2629      2.00000
      3      -9.9506      2.00000
      4      -9.8758      2.00000
      5      -9.8136      2.00000
      6      -9.8049      2.00000
      7      -9.7297      2.00000
      8      -9.6668      2.00000
      9      -9.6355      2.00000
     10      -9.6009      2.00000
     11      -9.5696      2.00000
     12      -9.5293      2.00000
     13      -9.4979      2.00000
     14      -9.4201      2.00000
     15      -9.3924      2.00000
     16      -8.4698      2.00000
     17      -8.4452      2.00000
     18      -8.4279      2.00000
     19      -8.4017      2.00000
     20      -8.3902      2.00000
     21      -8.3524      2.00000
     22      -8.3495      2.00000
     23      -8.3176      2.00000
     24      -8.2768      2.00000
     25      -8.2608      2.00000
     26      -8.2390      2.00000
     27      -8.2261      2.00000
     28      -8.2127      2.00000
     29      -8.2010      2.00000
     30      -8.1834      2.00000
     31      -8.1681      2.00000
     32      -8.1495      2.00000
     33      -8.0973      2.00000
     34      -8.0569      2.00000
     35      -8.0233      2.00000
     36      -7.9004      2.00000
     37      -7.8906      2.00000
     38      -7.8426      2.00000
     39      -7.8346      2.00000
     40      -7.8272      2.00000
     41      -7.8241      2.00000
     42      -7.8072      2.00000
     43      -7.7969      2.00000
     44      -7.7816      2.00000
     45      -7.7756      2.00000
     46      -7.7672      2.00000
     47      -7.7586      2.00000
     48      -7.7539      2.00000
     49      -7.7416      2.00000
     50      -7.7272      2.00000
     51      -7.7180      2.00000
     52      -7.7075      2.00000
     53      -7.7001      2.00000
     54      -7.6905      2.00000
     55      -7.6854      2.00000
     56      -7.6734      2.00000
     57      -7.6662      2.00000
     58      -7.6564      2.00000
     59      -7.6520      2.00000
     60      -7.6403      2.00000
     61      -7.6324      2.00000
     62      -7.6264      2.00000
     63      -7.6177      2.00000
     64      -7.6120      2.00000
     65      -7.6072      2.00000
     66      -7.6039      2.00000
     67      -7.5861      2.00000
     68      -7.5740      2.00000
     69      -7.5715      2.00000
     70      -7.5638      2.00000
     71      -7.5568      2.00000
     72      -7.5504      2.00000
     73      -7.5357      2.00000
     74      -7.5300      2.00000
     75      -7.5172      2.00000
     76      -7.5081      2.00000
     77      -7.4979      2.00000
     78      -7.4919      2.00000
     79      -7.4870      2.00000
     80      -7.4759      2.00000
     81      -7.4718      2.00000
     82      -7.4612      2.00000
     83      -7.2170      2.00000
     84      -6.9310      2.00000
     85      -6.7261      2.00000
     86      -6.5959      2.00000
     87      -6.4926      2.00000
     88      -6.4412      2.00000
     89      -6.2709      2.00000
     90      -6.2195      2.00000
     91      -6.1721      2.00000
     92      -6.0197      2.00000
     93      -5.9321      2.00000
     94      -5.8237      2.00000
     95      -5.7904      2.00000
     96      -1.6978      2.00000
     97      -1.0821      2.00000
     98      -1.0122      2.00000
     99      -0.8833      2.00000
    100      -0.7363      2.00000
    101      -0.5477      2.00000
    102      -0.4639      2.00000
    103      -0.3999      2.00000
    104      -0.3178      2.00000
    105      -0.2591      2.00000
    106       0.1926      2.00000
    107       0.2757      2.00000
    108       0.4564      2.00000
    109       0.7330      2.00000
    110       1.1389      2.00000
    111       1.3604      2.00000
    112       1.5135      2.00000
    113       1.5906      2.00000
    114       1.8563      2.00000
    115       2.0769      2.00000
    116       2.2665      2.00000
    117       2.4139      2.00000
    118       2.5787      2.00000
    119       2.7404      2.00000
    120       2.8252      2.00000
    121       2.9989      2.00000
    122       3.1359      2.00000
    123       3.2125      2.00000
    124       3.2987      2.00000
    125       3.4168      2.00000
    126       3.4713      2.00000
    127       3.5662      2.00000
    128       3.6808      2.00000
    129       3.7733      2.00000
    130       3.9135      2.00000
    131       4.0042      2.00000
    132       4.0614      2.00000
    133       4.1112      2.00000
    134       4.2488      2.00000
    135       4.3180      2.00000
    136       4.5017      2.00000
    137       4.6861      2.00000
    138       4.8289      2.00000
    139       4.9107      1.92932
    140       5.0529      0.00000
    141       5.2172      0.00000
    142       7.7746      0.00000
    143       8.1083      0.00000
    144       8.5310      0.00000
    145       9.1567      0.00000
    146       9.9425      0.00000
    147      10.2376      0.00000
    148      10.6210      0.00000
    149      10.7012      0.00000
    150      10.8721      0.00000
    151      10.9165      0.00000
    152      11.0880      0.00000
    153      11.1991      0.00000
    154      11.3315      0.00000
    155      11.4238      0.00000
    156      11.8450      0.00000
    157      11.9724      0.00000
    158      12.1685      0.00000
    159      12.5107      0.00000
    160      12.7171      0.00000
    161      12.9207      0.00000
    162      13.0843      0.00000
    163      13.1914      0.00000
    164      13.3899      0.00000
    165      13.4668      0.00000
    166      13.6352      0.00000
    167      13.8000      0.00000
    168      13.9969      0.00000


--------------------------------------------------------------------------------------------------------


 soft charge-density along one line, spin component           1
         0         1         2         3         4         5         6         7         8         9
 total charge-density along one line
 
 pseudopotential strength for first ion, spin component:           1
-11.190  -0.001   0.010  -0.000   0.000   0.324   0.001  -0.006
 -0.001 -11.214  -0.001  -0.009   0.001   0.001   0.339   0.001
  0.010  -0.001 -11.212   0.000  -0.005  -0.006   0.001   0.338
 -0.000  -0.009   0.000 -11.205  -0.001   0.000   0.005  -0.000
  0.000   0.001  -0.005  -0.001 -11.189  -0.000  -0.000   0.003
  0.324   0.001  -0.006   0.000  -0.000   4.952  -0.000   0.003
  0.001   0.339   0.001   0.005  -0.000  -0.000   4.942  -0.000
 -0.006   0.001   0.338  -0.000   0.003   0.003  -0.000   4.943
  0.000   0.005  -0.000   0.334   0.001  -0.001  -0.003   0.000
 -0.000  -0.000   0.003   0.001   0.324  -0.000  -0.000  -0.002
  0.000   0.000   0.002  -0.000  -0.000   0.001  -0.000  -0.002
  0.002  -0.001  -0.001   0.001  -0.000  -0.001   0.000   0.000
  0.000   0.002   0.000  -0.000  -0.001  -0.001  -0.001  -0.000
 -0.000  -0.001   0.000   0.000   0.000   0.000   0.001  -0.002
 -0.002  -0.000  -0.000   0.002   0.000   0.001   0.000   0.000
 -0.001  -0.001  -0.000   0.000  -0.002   0.002  -0.000  -0.000
  0.000   0.002  -0.005  -0.001  -0.000  -0.000  -0.001   0.006
  0.000   0.000   0.000  -0.001  -0.001   0.002  -0.000  -0.000
 total augmentation occupancy for first ion, spin component:           1
  2.010  -0.000   0.000  -0.002  -0.000   0.032  -0.001   0.001  -0.010   0.000   0.001  -0.000  -0.002   0.001   0.021   0.000
 -0.000   2.007  -0.000  -0.000  -0.002  -0.001   0.020  -0.001  -0.000  -0.009  -0.000  -0.000  -0.013   0.001   0.001  -0.002
  0.000  -0.000   2.009   0.000  -0.000   0.001  -0.001   0.031   0.001  -0.001  -0.003  -0.001  -0.002   0.011   0.002  -0.000
 -0.002  -0.000   0.000   2.007   0.000  -0.010  -0.000   0.001   0.020   0.000   0.000  -0.000   0.001  -0.001  -0.014   0.000
 -0.000  -0.002  -0.000   0.000   2.010   0.000  -0.009  -0.001   0.000   0.032   0.000   0.000   0.017  -0.000  -0.003   0.003
  0.032  -0.001   0.001  -0.010   0.000   0.090  -0.002   0.004  -0.028   0.000  -0.011  -0.000   0.005   0.001   0.199   0.000
 -0.001   0.020  -0.001  -0.000  -0.009  -0.002   0.052  -0.005  -0.001  -0.029  -0.004  -0.000  -0.127  -0.016  -0.002  -0.003
  0.001  -0.001   0.031   0.001  -0.001   0.004  -0.005   0.100   0.003  -0.004  -0.036  -0.001  -0.017   0.196   0.014  -0.000
 -0.010  -0.000   0.001   0.020   0.000  -0.028  -0.001   0.003   0.053  -0.000  -0.001  -0.000  -0.001   0.010  -0.121   0.000
  0.000  -0.009  -0.001   0.000   0.032   0.000  -0.029  -0.004  -0.000   0.089   0.009   0.000   0.189   0.002  -0.013   0.005
  0.001  -0.000  -0.003   0.000   0.000  -0.011  -0.004  -0.036  -0.001   0.009   1.297   0.037   0.017  -0.034  -0.013   0.000
 -0.000  -0.000  -0.001  -0.000   0.000  -0.000  -0.000  -0.001  -0.000   0.000   0.037   0.002  -0.000  -0.001  -0.000   0.000
 -0.002  -0.013  -0.002   0.001   0.017   0.005  -0.127  -0.017  -0.001   0.189   0.017  -0.000   0.995  -0.009  -0.026   0.022
  0.001   0.001   0.011  -0.001  -0.000   0.001  -0.016   0.196   0.010   0.002  -0.034  -0.001  -0.009   0.874  -0.002  -0.000
  0.021   0.001   0.002  -0.014  -0.003   0.199  -0.002   0.014  -0.121  -0.013  -0.013  -0.000  -0.026  -0.002   1.030  -0.001
  0.000  -0.002  -0.000   0.000   0.003   0.000  -0.003  -0.000   0.000   0.005   0.000   0.000   0.022  -0.000  -0.001   0.001
  0.000  -0.000   0.002   0.000   0.000   0.000  -0.000   0.004   0.000   0.000  -0.001  -0.000  -0.000   0.019  -0.000  -0.000
  0.003   0.000   0.000  -0.002  -0.000   0.005  -0.000   0.000  -0.003  -0.000  -0.000  -0.000  -0.001  -0.000   0.023  -0.000


------------------------ aborting loop because EDIFF is reached ----------------------------------------


    CHARGE:  cpu time    0.1160: real time    0.1186
    FORLOC:  cpu time    0.0040: real time    0.0037
    FORNL :  cpu time    0.9160: real time    0.9160
    FORCOR:  cpu time    0.0200: real time    0.0200
    FORHAR:  cpu time    0.0080: real time    0.0070
    MIXING:  cpu time    0.0000: real time    0.0010
    OFIELD:  cpu time    0.0000: real time    0.0001

 VOLUME and BASIS-vectors are now :
 -----------------------------------------------------------------------------
  energy-cutoff  :      550.00
  volume of cell :      353.46
      direct lattice vectors                 reciprocal lattice vectors
     6.303928400  0.000000000  0.000000000     0.158631243  0.000000000  0.000000000
     0.000000000  5.459364400  0.000000000     0.000000000  0.183171506  0.000000000
     0.000000000  0.000000000 10.270302800     0.000000000  0.000000000  0.097368113

  length of vectors
     6.303928400  5.459364400 10.270302800     0.158631243  0.183171506  0.097368113


 FORCES acting on ions
    electron-ion (+dipol)            ewald-force                    non-local-force                 convergence-correction
 -----------------------------------------------------------------------------------------------
   -.264E+02 0.136E+02 -.384E+02   0.269E+02 -.135E+02 0.386E+02   -.102E+00 -.385E+00 0.596E+00   -.269E-02 0.915E-02 0.583E-02
   0.315E+02 -.135E+02 0.163E+01   -.311E+02 0.134E+02 -.311E+01   -.629E+00 0.659E+00 0.948E+00   0.456E-02 0.993E-02 0.343E-02
   -.417E+01 -.161E+02 -.731E+01   0.278E+01 0.140E+02 0.656E+01   0.112E+01 0.158E+01 0.471E+00   -.641E-03 -.105E-01 0.277E-02
   -.111E+02 -.233E+01 0.344E+01   0.109E+02 0.236E+01 -.467E+01   0.399E+00 0.283E+00 0.140E+01   -.128E-02 -.787E-02 0.640E-02
   0.544E+01 -.518E+01 0.512E+01   -.516E+01 0.448E+01 -.389E+01   -.813E+00 0.105E+01 -.568E+00   0.170E-02 -.818E-02 -.224E-01
   0.533E+01 0.265E+02 -.114E+02   -.636E+01 -.267E+02 0.101E+02   0.423E+00 -.341E+00 0.156E+01   0.473E-03 -.505E-02 -.291E-01
   0.100E+02 -.190E+02 0.140E+02   -.824E+01 0.190E+02 -.153E+02   -.176E+01 0.235E+00 0.120E+01   -.251E-03 0.466E-02 -.226E-01
   -.185E+02 -.200E+02 -.198E+02   0.177E+02 0.200E+02 0.190E+02   0.147E+01 0.870E+00 0.129E+01   -.709E-03 0.183E-02 -.229E-01
   -.179E+02 0.514E+00 0.398E+02   0.160E+02 0.108E+01 -.399E+02   0.212E+01 -.153E+01 -.617E+00   -.102E-01 0.158E-02 0.104E-01
   0.105E+02 -.361E+02 0.378E+02   -.840E+01 0.365E+02 -.366E+02   -.171E+01 0.756E+00 -.153E+01   0.989E-02 0.154E-02 0.995E-02
   0.571E+02 0.233E+02 0.187E+02   -.571E+02 -.239E+02 -.182E+02   -.713E+00 -.574E-01 -.414E+00   0.105E-02 -.596E-02 0.539E-02
   -.641E+02 0.895E+01 -.945E+02   0.644E+02 -.106E+02 0.837E+02   0.212E+00 0.123E+01 0.936E+01   0.135E-03 0.507E-03 0.674E-02
   0.341E+02 0.123E+02 -.201E+02   -.351E+02 -.116E+02 0.209E+02   0.831E+00 -.130E+01 -.846E+00   -.209E-02 -.581E-02 0.976E-02
   -.563E+02 -.975E+02 -.147E+02   0.568E+02 0.877E+02 0.201E+02   0.189E+00 0.840E+01 -.473E+01   0.912E-03 -.137E-01 0.147E-01
   -.120E+03 0.295E+02 -.185E+02   0.112E+03 -.248E+02 0.243E+02   0.687E+01 -.392E+01 -.523E+01   -.101E-01 0.793E-02 0.924E-02
   0.117E+03 0.787E+02 -.632E+01   -.110E+03 -.729E+02 0.118E+02   -.688E+01 -.565E+01 -.444E+01   0.126E-01 0.117E-01 0.842E-02
   0.164E+02 -.886E+01 -.200E+02   -.184E+02 0.104E+02 0.212E+02   0.265E+01 -.181E+01 -.586E+00   -.134E-02 -.182E-02 0.329E-02
   -.185E+02 0.104E+02 0.192E+02   0.204E+02 -.120E+02 -.201E+02   -.244E+01 0.146E+01 0.937E+00   0.147E-02 -.227E-02 0.605E-02
   -.420E+01 -.120E+02 0.442E+01   0.403E+01 0.131E+02 -.484E+01   -.263E-01 -.960E+00 0.112E+01   -.155E-02 0.139E-02 0.572E-02
   0.125E+02 0.104E+02 0.248E+02   -.129E+02 -.111E+02 -.251E+02   0.342E+00 0.968E-01 -.138E+00   0.137E-02 0.241E-02 0.483E-02
   -.349E+02 0.973E+01 0.357E+02   0.380E+02 -.107E+02 -.385E+02   -.273E+01 0.999E+00 0.214E+01   -.717E-03 0.252E-02 -.520E-02
   0.892E+01 0.100E+02 -.841E+01   -.891E+01 -.113E+02 0.980E+01   -.185E+00 0.118E+01 -.127E+01   0.102E-02 0.293E-02 -.640E-02
   0.420E+01 0.322E+01 0.677E+01   -.487E+01 -.419E+01 -.708E+01   0.969E+00 0.137E+01 0.428E+00   -.383E-04 -.290E-02 -.540E-02
   0.176E+02 0.436E+01 0.238E+02   -.196E+02 -.410E+01 -.254E+02   0.191E+01 -.111E+01 0.106E+01   -.150E-03 -.209E-02 -.598E-02
   0.292E+02 -.113E+02 0.187E+02   -.308E+02 0.115E+02 -.198E+02   0.698E+00 0.707E+00 0.720E+00   -.873E-03 -.472E-03 -.388E-02
   -.107E+02 -.154E+02 0.219E+02   0.101E+02 0.168E+02 -.228E+02   0.124E+01 -.232E+01 0.398E+00   0.215E-03 -.386E-04 -.357E-02
   -.195E+02 0.123E+01 0.293E+02   0.209E+02 -.121E+01 -.313E+02   -.148E+01 0.415E+00 0.220E+01   -.715E-03 0.502E-04 -.309E-02
   0.586E+01 0.285E+02 0.163E+02   -.574E+01 -.307E+02 -.182E+02   0.110E-01 0.169E+01 0.208E+01   0.457E-03 0.803E-03 -.249E-02
   -.613E+01 0.170E+02 -.389E+02   0.425E+01 -.182E+02 0.411E+02   0.291E+01 0.135E+01 -.180E+01   -.429E-02 0.202E-02 0.508E-02
   0.259E+02 -.152E+02 -.209E+02   -.258E+02 0.174E+02 0.209E+02   -.136E+01 -.208E+01 -.607E-01   0.399E-02 0.140E-02 0.511E-02
   0.178E+02 -.190E+02 -.699E+01   -.173E+02 0.196E+02 0.682E+01   -.840E+00 0.147E+00 -.731E+00   -.127E-02 -.263E-02 0.434E-02
 -----------------------------------------------------------------------------------------------
   -.270E+01 -.303E+01 -.493E+01   -.117E-12 0.675E-13 0.631E-13   0.270E+01 0.304E+01 0.494E+01   0.954E-03 -.695E-02 -.546E-02
 
 
 POSITION                                       TOTAL-FORCE (eV/Angst)
 -----------------------------------------------------------------------------------
      1.57230      0.95794      2.42993         0.391676     -0.305839      0.787792
      4.71736      0.90615      2.61646        -0.219418      0.588155     -0.530421
      0.03991      3.72707      2.55212        -0.272773     -0.503495     -0.281544
      3.15412      3.64289      2.55873         0.233008      0.302951      0.179756
      0.06872      1.73259      5.08285        -0.538172      0.345597      0.641565
      3.19087      1.85592      5.19672        -0.603040     -0.474871      0.210303
      1.54304      4.50216      5.17351         0.015464      0.281844     -0.205216
      4.66238      4.44343      5.15256         0.713092      0.865747      0.464062
      1.53332      0.86274      7.75116         0.204621      0.068354     -0.665526
      4.67485      0.83316      7.69073         0.428647      1.159762     -0.398080
      0.02854      3.59341      7.68988        -0.755866     -0.662745      0.018452
      3.11054      3.68142      7.98431         0.504859     -0.461630     -1.431403
      6.28813      1.81909      0.02810        -0.132648     -0.582833     -0.072720
      3.09131      1.93266     10.13840         0.655801     -1.353671      0.730017
      1.72362      4.43720     10.15840        -0.871154      0.835569      0.582670
      4.77811      4.58824     10.21560         0.702675      0.189395      1.027748
      6.24284      1.88014      1.91807         0.591971     -0.261437      0.645136
      3.20109      1.87552      1.82921        -0.521413     -0.089728     -0.004384
      1.63823      4.55328      1.79895        -0.197407      0.113894      0.716715
      4.72082      4.59784      1.90532         0.025205     -0.581766     -0.411532
      1.62774      0.86020      4.46699         0.387731      0.076187     -0.616753
      4.72816      0.86558      4.53490        -0.177093     -0.072292      0.106771
      6.26649      3.58556      4.48686         0.305648      0.399030      0.106051
      3.10558      3.65708      4.50003        -0.134106     -0.849500     -0.576031
      0.01512      1.71662      7.04516        -0.854067      0.866543     -0.355637
      3.07652      1.91339      7.19183         0.678504     -0.920932     -0.524671
      1.60223      4.49492      7.10178        -0.140343      0.437678      0.262131
      4.67537      4.48705      7.11993         0.136288     -0.437712      0.156526
      1.51994      0.86023      9.63837         1.020067      0.139255      0.359739
      4.74851      0.93470      9.60148        -1.261891      0.114293     -0.023496
      0.04391      3.57879      9.65792        -0.315866      0.774197     -0.898017
 -----------------------------------------------------------------------------------
    total drift:                                0.002868      0.000300      0.000095


--------------------------------------------------------------------------------------------------------



  FREE ENERGIE OF THE ION-ELECTRON SYSTEM (eV)
  ---------------------------------------------------
  free  energy   TOTEN  =      -198.83935990 eV

  energy  without entropy=     -198.83757374  energy(sigma->0) =     -198.83846682
 


--------------------------------------------------------------------------------------------------------


    POTLOK:  cpu time    0.0200: real time    0.0183


--------------------------------------------------------------------------------------------------------


     LOOP+:  cpu time   62.4600: real time   62.6246
    4ORBIT:  cpu time    0.0000: real time    0.0000

 total amount of memory used by VASP MPI-rank0    54108. kBytes
=======================================================================

   base      :      30000. kBytes
   nonl-proj :       5941. kBytes
   fftplans  :       1943. kBytes
   grid      :       3088. kBytes
   one-center:         62. kBytes
   wavefun   :      13074. kBytes
 
  
  
 General timing and accounting informations for this job:
 ========================================================
  
                  Total CPU time used (sec):       67.936
                            User time (sec):       65.244
                          System time (sec):        2.692
                         Elapsed time (sec):       68.192
  
                   Maximum memory used (kb):       77024.
                   Average memory used (kb):           0.
  
                          Minor page faults:        14449
                          Major page faults:            0
                 Voluntary context switches:          479
