 vasp.5.4.4.18Apr17-6-g9f103f2a35 (build Jul 19 2018 11:24:23) complex          
  
 executed on             CrayXC50 date 2020.08.24  22:40:23
 running on   36 total cores
 distrk:  each k-point on   36 cores,    1 groups
 distr:  one band on NCORES_PER_BAND=   9 cores,    4 groups


--------------------------------------------------------------------------------------------------------


 INCAR:
 POTCAR:    PAW_PBE Ga_d 06Jul2010                
 POTCAR:    PAW_PBE N 08Apr2002                   
 POTCAR:    PAW_PBE Ga_d 06Jul2010                
   VRHFIN =Ga: s2p1                                                             
   LEXCH  = PE                                                                  
   EATOM  =  2148.8298 eV,  157.9345 Ry                                         
                                                                                
   TITEL  = PAW_PBE Ga_d 06Jul2010                                              
   LULTRA =        F    use ultrasoft PP ?                                      
   IUNSCR =        1    unscreen: 0-lin 1-nonlin 2-no                           
   RPACOR =    1.700    partial core radius                                     
   POMASS =   69.723; ZVAL   =   13.000    mass and valenz                      
   RCORE  =    2.300    outmost cutoff radius                                   
   RWIGS  =    2.300; RWIGS  =    1.217    wigner-seitz radius (au A)           
   ENMAX  =  282.691; ENMIN  =  212.018 eV                                      
   ICORE  =        3    local potential                                         
   LCOR   =        T    correct aug charges                                     
   LPAW   =        T    paw PP                                                  
   EAUG   =  490.690                                                            
   DEXC   =    0.000                                                            
   RMAX   =    2.341    core radius for proj-oper                               
   RAUG   =    1.300    factor for augmentation sphere                          
   RDEP   =    2.413    radius for radial grids                                 
   RDEPT  =    1.856    core radius for aug-charge                              
                                                                                
   Atomic configuration                                                         
    9 entries                                                                   
     n  l   j            E        occ.                                          
     1  0  0.50    -10228.7831   2.0000                                         
     2  0  0.50     -1262.1604   2.0000                                         
     2  1  1.50     -1098.6333   6.0000                                         
     3  0  0.50      -148.1110   2.0000                                         
     3  1  1.50       -98.8436   6.0000                                         
     3  2  2.50       -19.1549  10.0000                                         
     4  0  0.50        -8.9483   2.0000                                         
     4  1  0.50        -2.5791   1.0000                                         
     4  3  2.50        -2.7416   0.0000                                         
   Description                                                                  
     l       E           TYP  RCUT    TYP  RCUT                                 
     2    -19.1549037     23  2.300                                             
     2     -5.4423304     23  2.300                                             
     0     -8.9483111     23  2.300                                             
     0     68.0291300     23  2.300                                             
     1     -2.5790802     23  2.100                                             
     1     81.6349560     23  2.300                                             
     3      6.8029130     23  2.300                                             
  local pseudopotential read in
  partial core-charges read in
  partial kinetic energy density read in
  atomic valenz-charges read in
  non local Contribution for L=           2  read in
    real space projection operators read in
  non local Contribution for L=           2  read in
    real space projection operators read in
  non local Contribution for L=           0  read in
    real space projection operators read in
  non local Contribution for L=           0  read in
    real space projection operators read in
  non local Contribution for L=           1  read in
    real space projection operators read in
  non local Contribution for L=           1  read in
    real space projection operators read in
    PAW grid and wavefunctions read in
 
   number of l-projection  operators is LMAX  =           6
   number of lm-projection operators is LMMAX =          18
 
 POTCAR:    PAW_PBE N 08Apr2002                   
   VRHFIN =N: s2p3                                                              
   LEXCH  = PE                                                                  
   EATOM  =   264.5486 eV,   19.4438 Ry                                         
                                                                                
   TITEL  = PAW_PBE N 08Apr2002                                                 
   LULTRA =        F    use ultrasoft PP ?                                      
   IUNSCR =        1    unscreen: 0-lin 1-nonlin 2-no                           
   RPACOR =    1.200    partial core radius                                     
   POMASS =   14.001; ZVAL   =    5.000    mass and valenz                      
   RCORE  =    1.500    outmost cutoff radius                                   
   RWIGS  =    1.400; RWIGS  =    0.741    wigner-seitz radius (au A)           
   ENMAX  =  400.000; ENMIN  =  300.000 eV                                      
   ICORE  =        2    local potential                                         
   LCOR   =        T    correct aug charges                                     
   LPAW   =        T    paw PP                                                  
   EAUG   =  627.112                                                            
   DEXC   =    0.000                                                            
   RMAX   =    1.529    core radius for proj-oper                               
   RAUG   =    1.300    factor for augmentation sphere                          
   RDEP   =    1.514    radius for radial grids                                 
   RDEPT  =    1.338    core radius for aug-charge                              
                                                                                
   Atomic configuration                                                         
    4 entries                                                                   
     n  l   j            E        occ.                                          
     1  0  0.50      -384.7179   2.0000                                         
     2  0  0.50       -18.5828   2.0000                                         
     2  1  0.50        -7.0898   3.0000                                         
     3  2  1.50        -6.8029   0.0000                                         
   Description                                                                  
     l       E           TYP  RCUT    TYP  RCUT                                 
     0    -18.5828119     23  1.200                                             
     0    -13.5018863     23  1.200                                             
     1     -7.0897853     23  1.500                                             
     1      9.5240782     23  1.500                                             
     2     -6.8029130      7  1.500                                             
  local pseudopotential read in
  partial core-charges read in
  partial kinetic energy density read in
  atomic valenz-charges read in
  non local Contribution for L=           0  read in
    real space projection operators read in
  non local Contribution for L=           0  read in
    real space projection operators read in
  non local Contribution for L=           1  read in
    real space projection operators read in
  non local Contribution for L=           1  read in
    real space projection operators read in
    PAW grid and wavefunctions read in
 
   number of l-projection  operators is LMAX  =           4
   number of lm-projection operators is LMMAX =           8
 

 ----------------------------------------------------------------------------- 
|                                                                             |
|  ADVICE TO THIS USER RUNNING 'VASP/VAMP'   (HEAR YOUR MASTER'S VOICE ...):  |
|                                                                             |
|      You have a (more or less) 'large supercell' and for larger cells       |
|      it might be more efficient to use real space projection opertators     |
|      So try LREAL= Auto  in the INCAR   file.                               |
|      Mind:          For very  accurate calculation you might also keep the  |
|      reciprocal projection scheme          (i.e. LREAL=.FALSE.)             |
|                                                                             |
 ----------------------------------------------------------------------------- 

  PAW_PBE Ga_d 06Jul2010                :
 energy of atom  1       EATOM=-2148.8298
 kinetic energy error for atom=    0.0025 (will be added to EATOM!!)
  PAW_PBE N 08Apr2002                   :
 energy of atom  2       EATOM= -264.5486
 kinetic energy error for atom=    0.0116 (will be added to EATOM!!)
 
 
 POSCAR: system_name                             
  positions in direct lattice
  No initial velocities read in
 exchange correlation table for  LEXCH =        8
   RHO(1)=    0.500       N(1)  =     2000
   RHO(2)=  100.500       N(2)  =     4000
 


--------------------------------------------------------------------------------------------------------


 ion  position               nearest neighbor table
   1  0.245  0.177  0.245-  18 1.91  17 1.93  21 1.97  19 2.01
   2  0.742  0.174  0.255-  22 1.92  17 1.94  18 1.94  20 1.94
   3  0.003  0.676  0.244-  17 1.94  19 1.97  23 1.98  20 2.03
   4  0.498  0.667  0.252-  19 1.88  18 1.91  20 1.92  24 1.94
   5  0.017  0.331  0.496-  23 1.86  25 1.90  21 1.92  22 1.97
   6  0.505  0.336  0.503-  24 1.92  22 1.94  21 1.96  26 1.99
   7  0.248  0.828  0.503-  21 1.91  24 1.92  23 1.95  27 1.96
   8  0.747  0.815  0.505-  24 1.87  28 1.92  23 1.97  22 2.02
   9  0.246  0.159  0.753-  25 1.91  27 1.91  26 1.92  29 1.96
  10  0.747  0.152  0.748-  30 1.89  26 1.94  25 1.97  28 1.97
  11  0.005  0.646  0.748-  28 1.93  25 1.94  27 1.95  31 2.04
  12  0.500  0.659  0.773-  28 1.94  26 1.95  27 1.97  15 2.66  14 2.71  16 2.82
  13  0.992  0.329  0.001-  31 1.88  17 1.89  30 1.91  29 1.93
  14  0.490  0.378  0.990-  30 1.99  29 2.00  18 2.01  15 2.66  12 2.71  16 2.90
  15  0.301  0.814  0.987-  29 1.99  19 1.99  31 2.08  16 2.65  14 2.66  12 2.66
  16  0.721  0.836  0.993-  20 1.95  30 2.01  31 2.11  15 2.65  12 2.82  14 2.90
  17  0.990  0.339  0.186-  13 1.89   1 1.93   3 1.94   2 1.94
  18  0.494  0.341  0.185-   4 1.91   1 1.91   2 1.94  14 2.01
  19  0.264  0.831  0.179-   4 1.88   3 1.97  15 1.99   1 2.01
  20  0.734  0.845  0.183-   4 1.92   2 1.94  16 1.95   3 2.03
  21  0.261  0.153  0.436-   7 1.91   5 1.92   6 1.96   1 1.97
  22  0.755  0.165  0.441-   2 1.92   6 1.94   5 1.97   8 2.02
  23  0.003  0.651  0.436-   5 1.86   7 1.95   8 1.97   3 1.98
  24  0.500  0.668  0.441-   8 1.87   7 1.92   6 1.92   4 1.94
  25  0.003  0.315  0.680-   5 1.90   9 1.91  11 1.94  10 1.97
  26  0.495  0.332  0.697-   9 1.92  10 1.94  12 1.95   6 1.99
  27  0.256  0.828  0.694-   9 1.91  11 1.95   7 1.96  12 1.97
  28  0.748  0.806  0.692-   8 1.92  11 1.93  12 1.94  10 1.97
  29  0.244  0.162  0.944-  13 1.93   9 1.96  15 1.99  14 2.00
  30  0.739  0.185  0.931-  10 1.89  13 1.91  14 1.99  16 2.01
  31  0.008  0.657  0.947-  13 1.88  11 2.04  15 2.08  16 2.11
 
  LATTYP: Found a simple orthorhombic cell.
 ALAT       =     5.4593644000
 B/A-ratio  =     1.1547000600
 C/A-ratio  =     1.8812268329
  
  Lattice vectors:
  
 A1 = (   0.0000000000,  -5.4593644000,   0.0000000000)
 A2 = (  -6.3039284000,   0.0000000000,   0.0000000000)
 A3 = (   0.0000000000,   0.0000000000, -10.2703028000)


Analysis of symmetry for initial positions (statically):
=====================================================================
 Subroutine PRICEL returns:
 Original cell was already a primitive cell.
 

 Routine SETGRP: Setting up the symmetry group for a 
 simple orthorhombic supercell.


 Subroutine GETGRP returns: Found  1 space group operations
 (whereof  1 operations were pure point group operations)
 out of a pool of  8 trial point group operations.


The static configuration has the point symmetry C_1 .


Analysis of symmetry for dynamics (positions and initial velocities):
=====================================================================
 Subroutine PRICEL returns:
 Original cell was already a primitive cell.
 

 Routine SETGRP: Setting up the symmetry group for a 
 simple orthorhombic supercell.


 Subroutine GETGRP returns: Found  1 space group operations
 (whereof  1 operations were pure point group operations)
 out of a pool of  8 trial point group operations.


The dynamic configuration has the point symmetry C_1 .


Analysis of constrained symmetry for selective dynamics:
=====================================================================
 Subroutine PRICEL returns:
 Original cell was already a primitive cell.
 

 Routine SETGRP: Setting up the symmetry group for a 
 simple orthorhombic supercell.


 Subroutine GETGRP returns: Found  1 space group operations
 (whereof  1 operations were pure point group operations)
 out of a pool of  8 trial point group operations.


The constrained configuration has the point symmetry C_1 .


 Subroutine INISYM returns: Found  1 space group operations
 (whereof  1 operations are pure point group operations),
 and found     1 'primitive' translations

 
 
 KPOINTS: automatic mesh                          

Automatic generation of k-mesh.
Space group operators:
 irot       det(A)        alpha          n_x          n_y          n_z        tau_x        tau_y        tau_z
    1     1.000000     0.000000     1.000000     0.000000     0.000000     0.000000     0.000000     0.000000
 
 Subroutine IBZKPT returns following result:
 ===========================================
 
 Found     16 irreducible k-points:
 
 Following reciprocal coordinates:
            Coordinates               Weight
  0.125000  0.125000  0.250000      2.000000
  0.375000  0.125000  0.250000      2.000000
 -0.375000  0.125000  0.250000      2.000000
 -0.125000  0.125000  0.250000      2.000000
  0.125000  0.375000  0.250000      2.000000
  0.375000  0.375000  0.250000      2.000000
 -0.375000  0.375000  0.250000      2.000000
 -0.125000  0.375000  0.250000      2.000000
  0.125000 -0.375000  0.250000      2.000000
  0.375000 -0.375000  0.250000      2.000000
 -0.375000 -0.375000  0.250000      2.000000
 -0.125000 -0.375000  0.250000      2.000000
  0.125000 -0.125000  0.250000      2.000000
  0.375000 -0.125000  0.250000      2.000000
 -0.375000 -0.125000  0.250000      2.000000
 -0.125000 -0.125000  0.250000      2.000000
 
 Following cartesian coordinates:
            Coordinates               Weight
  0.019829  0.022896  0.024342      2.000000
  0.059487  0.022896  0.024342      2.000000
 -0.059487  0.022896  0.024342      2.000000
 -0.019829  0.022896  0.024342      2.000000
  0.019829  0.068689  0.024342      2.000000
  0.059487  0.068689  0.024342      2.000000
 -0.059487  0.068689  0.024342      2.000000
 -0.019829  0.068689  0.024342      2.000000
  0.019829 -0.068689  0.024342      2.000000
  0.059487 -0.068689  0.024342      2.000000
 -0.059487 -0.068689  0.024342      2.000000
 -0.019829 -0.068689  0.024342      2.000000
  0.019829 -0.022896  0.024342      2.000000
  0.059487 -0.022896  0.024342      2.000000
 -0.059487 -0.022896  0.024342      2.000000
 -0.019829 -0.022896  0.024342      2.000000
 


--------------------------------------------------------------------------------------------------------




 Dimension of arrays:
   k-points           NKPTS =     16   k-points in BZ     NKDIM =     16   number of bands    NBANDS=    168
   number of dos      NEDOS =    301   number of ions     NIONS =     31
   non local maximal  LDIM  =      6   non local SUM 2l+1 LMDIM =     18
   total plane-waves  NPLWV = 161280
   max r-space proj   IRMAX =      1   max aug-charges    IRDMAX=  17490
   dimension x,y,z NGX =    48 NGY =   42 NGZ =   80
   dimension x,y,z NGXF=    96 NGYF=   84 NGZF=  160
   support grid    NGXF=    96 NGYF=   84 NGZF=  160
   ions per type =              16  15
   NGX,Y,Z   is equivalent  to a cutoff of  12.66, 12.79, 12.95 a.u.
   NGXF,Y,Z  is equivalent  to a cutoff of  25.32, 25.58, 25.90 a.u.

 SYSTEM =  unknown system                          
 POSCAR =  system_name                             

 Startparameter for this run:
   NWRITE =      2    write-flag & timer
   PREC   = accura    normal or accurate (medium, high low for compatibility)
   ISTART =      0    job   : 0-new  1-cont  2-samecut
   ICHARG =      1    charge: 1-file 2-atom 10-const
   ISPIN  =      1    spin polarized calculation?
   LNONCOLLINEAR =      F non collinear calculations
   LSORBIT =      F    spin-orbit coupling
   INIWAV =      1    electr: 0-lowe 1-rand  2-diag
   LASPH  =      F    aspherical Exc in radial PAW
   METAGGA=      F    non-selfconsistent MetaGGA calc.

 Electronic Relaxation 1
   ENCUT  =  550.0 eV  40.42 Ry    6.36 a.u.  12.05 10.44 19.64*2*pi/ulx,y,z
   ENINI  =  550.0     initial cutoff
   ENAUG  =  627.1 eV  augmentation charge cutoff
   NELM   =     60;   NELMIN=  2; NELMDL= -5     # of ELM steps 
   EDIFF  = 0.1E-03   stopping-criterion for ELM
   LREAL  =      F    real-space projection
   NLSPLINE    = F    spline interpolate recip. space projectors
   LCOMPAT=      F    compatible to vasp.4.4
   GGA_COMPAT  = T    GGA compatible to vasp.4.4-vasp.4.6
   LMAXPAW     = -100 max onsite density
   LMAXMIX     =    2 max onsite mixed and CHGCAR
   VOSKOWN=      0    Vosko Wilk Nusair interpolation
   ROPT   =    0.00000   0.00000
 Ionic relaxation
   EDIFFG = 0.1E-02   stopping-criterion for IOM
   NSW    =      0    number of steps for IOM
   NBLOCK =      1;   KBLOCK =      1    inner block; outer block 
   IBRION =     -1    ionic relax: 0-MD 1-quasi-New 2-CG
   NFREE  =      0    steps in history (QN), initial steepest desc. (CG)
   ISIF   =      0    stress and relaxation
   IWAVPR =     10    prediction:  0-non 1-charg 2-wave 3-comb
   ISYM   =      2    0-nonsym 1-usesym 2-fastsym
   LCORR  =      T    Harris-Foulkes like correction to forces

   POTIM  = 0.5000    time-step for ionic-motion
   TEIN   =    0.0    initial temperature
   TEBEG  =    0.0;   TEEND  =   0.0 temperature during run
   SMASS  =  -3.00    Nose mass-parameter (am)
   estimated Nose-frequenzy (Omega)   =  0.10E-29 period in steps =****** mass=  -0.908E-27a.u.
   SCALEE = 1.0000    scale energy and forces
   NPACO  =    256;   APACO  = 16.0  distance and # of slots for P.C.
   PSTRESS=    0.0 pullay stress

  Mass of Ions in am
   POMASS =  69.72 14.00
  Ionic Valenz
   ZVAL   =  13.00  5.00
  Atomic Wigner-Seitz radii
   RWIGS  =  -1.00 -1.00
  virtual crystal weights 
   VCA    =   1.00  1.00
   NELECT =     280.0000    total number of electrons
   NUPDOWN=      -1.0000    fix difference up-down

 DOS related values:
   EMIN   =  10.00;   EMAX   =-10.00  energy-range for DOS
   EFERMI =   0.00
   ISMEAR =     0;   SIGMA  =   0.01  broadening in eV -4-tet -1-fermi 0-gaus

 Electronic relaxation 2 (details)
   IALGO  =     38    algorithm
   LDIAG  =      T    sub-space diagonalisation (order eigenvalues)
   LSUBROT=      F    optimize rotation matrix (better conditioning)
   TURBO    =      0    0=normal 1=particle mesh
   IRESTART =      0    0=no restart 2=restart with 2 vectors
   NREBOOT  =      0    no. of reboots
   NMIN     =      0    reboot dimension
   EREF     =   0.00    reference energy to select bands
   IMIX   =      4    mixing-type and parameters
     AMIX     =   0.40;   BMIX     =  1.00
     AMIX_MAG =   1.60;   BMIX_MAG =  1.00
     AMIN     =   0.10
     WC   =   100.;   INIMIX=   1;  MIXPRE=   1;  MAXMIX= -45

 Intra band minimization:
   WEIMIN = 0.0000     energy-eigenvalue tresh-hold
   EBREAK =  0.15E-06  absolut break condition
   DEPER  =   0.30     relativ break condition  

   TIME   =   0.40     timestep for ELM

  volume/ion in A,a.u.               =      11.40        76.94
  Fermi-wavevector in a.u.,A,eV,Ry     =   1.514777  2.862513 31.219230  2.294549
  Thomas-Fermi vector in A             =   2.624389
 
 Write flags
   LWAVE        =      F    write WAVECAR
   LDOWNSAMPLE  =      F    k-point downsampling of WAVECAR
   LCHARG       =      T    write CHGCAR
   LVTOT        =      T    write LOCPOT, total local potential
   LVHAR        =      F    write LOCPOT, Hartree potential only
   LELF         =      F    write electronic localiz. function (ELF)
   LORBIT       =      0    0 simple, 1 ext, 2 COOP (PROOUT), +10 PAW based schemes


 Dipole corrections
   LMONO  =      F    monopole corrections only (constant potential shift)
   LDIPOL =      F    correct potential (dipole corrections)
   IDIPOL =      0    1-x, 2-y, 3-z, 4-all directions 
   EPSILON=  1.0000000 bulk dielectric constant

 Exchange correlation treatment:
   GGA     =    --    GGA type
   LEXCH   =     8    internal setting for exchange type
   VOSKOWN=      0    Vosko Wilk Nusair interpolation
   LHFCALC =     F    Hartree Fock is set to
   LHFONE  =     F    Hartree Fock one center treatment
   AEXX    =    0.0000 exact exchange contribution

 Linear response parameters
   LEPSILON=     F    determine dielectric tensor
   LRPA    =     F    only Hartree local field effects (RPA)
   LNABLA  =     F    use nabla operator in PAW spheres
   LVEL    =     F    velocity operator in full k-point grid
   LINTERFAST=   F  fast interpolation
   KINTER  =     0    interpolate to denser k-point grid
   CSHIFT  =0.1000    complex shift for real part using Kramers Kronig
   OMEGAMAX=  -1.0    maximum frequency
   DEG_THRESHOLD= 0.2000000E-02 threshold for treating states as degnerate
   RTIME   =   -0.100 relaxation time in fs
  (WPLASMAI=    0.000 imaginary part of plasma frequency in eV, 0.658/RTIME)
   DFIELD  = 0.0000000 0.0000000 0.0000000 field for delta impulse in time
 
 Orbital magnetization related:
   ORBITALMAG=     F  switch on orbital magnetization
   LCHIMAG   =     F  perturbation theory with respect to B field
   DQ        =  0.001000  dq finite difference perturbation B field
   LLRAUG    =     F  two centre corrections for induced B field



--------------------------------------------------------------------------------------------------------


 Static calculation
 charge density and potential will be updated during run
 non-spin polarized calculation
 Variant of blocked Davidson
 Davidson routine will perform the subspace rotation
 perform sub-space diagonalisation
    after iterative eigenvector-optimisation
 modified Broyden-mixing scheme, WC =      100.0
 initial mixing is a Kerker type mixing with AMIX =  0.4000 and BMIX =      1.0000
 Hartree-type preconditioning will be used
 using additional bands           28
 reciprocal scheme for non local part
 use partial core corrections
 calculate Harris-corrections to forces 
   (improved forces if not selfconsistent)
 use gradient corrections 
 use of overlap-Matrix (Vanderbilt PP)
 Gauss-broadening in eV      SIGMA  =   0.01


--------------------------------------------------------------------------------------------------------


  energy-cutoff  :      550.00
  volume of cell :      353.46
      direct lattice vectors                 reciprocal lattice vectors
     6.303928400  0.000000000  0.000000000     0.158631243  0.000000000  0.000000000
     0.000000000  5.459364400  0.000000000     0.000000000  0.183171506  0.000000000
     0.000000000  0.000000000 10.270302800     0.000000000  0.000000000  0.097368113

  length of vectors
     6.303928400  5.459364400 10.270302800     0.158631243  0.183171506  0.097368113


 
 k-points in units of 2pi/SCALE and weight: automatic mesh                          
   0.01982891  0.02289644  0.02434203       0.062
   0.05948672  0.02289644  0.02434203       0.062
  -0.05948672  0.02289644  0.02434203       0.062
  -0.01982891  0.02289644  0.02434203       0.062
   0.01982891  0.06868931  0.02434203       0.062
   0.05948672  0.06868931  0.02434203       0.062
  -0.05948672  0.06868931  0.02434203       0.062
  -0.01982891  0.06868931  0.02434203       0.062
   0.01982891 -0.06868931  0.02434203       0.062
   0.05948672 -0.06868931  0.02434203       0.062
  -0.05948672 -0.06868931  0.02434203       0.062
  -0.01982891 -0.06868931  0.02434203       0.062
   0.01982891 -0.02289644  0.02434203       0.062
   0.05948672 -0.02289644  0.02434203       0.062
  -0.05948672 -0.02289644  0.02434203       0.062
  -0.01982891 -0.02289644  0.02434203       0.062
 
 k-points in reciprocal lattice and weights: automatic mesh                          
   0.12500000  0.12500000  0.25000000       0.062
   0.37500000  0.12500000  0.25000000       0.062
  -0.37500000  0.12500000  0.25000000       0.062
  -0.12500000  0.12500000  0.25000000       0.062
   0.12500000  0.37500000  0.25000000       0.062
   0.37500000  0.37500000  0.25000000       0.062
  -0.37500000  0.37500000  0.25000000       0.062
  -0.12500000  0.37500000  0.25000000       0.062
   0.12500000 -0.37500000  0.25000000       0.062
   0.37500000 -0.37500000  0.25000000       0.062
  -0.37500000 -0.37500000  0.25000000       0.062
  -0.12500000 -0.37500000  0.25000000       0.062
   0.12500000 -0.12500000  0.25000000       0.062
   0.37500000 -0.12500000  0.25000000       0.062
  -0.37500000 -0.12500000  0.25000000       0.062
  -0.12500000 -0.12500000  0.25000000       0.062
 
 position of ions in fractional coordinates (direct lattice) 
   0.24450468  0.17691473  0.24453125
   0.74166769  0.17423842  0.25474322
   0.00255622  0.67578196  0.24415444
   0.49760400  0.66706850  0.25192928
   0.01710933  0.33082606  0.49602043
   0.50541183  0.33581015  0.50335420
   0.24814844  0.82804145  0.50335127
   0.74680734  0.81455270  0.50483516
   0.24632418  0.15944310  0.75315890
   0.74730861  0.15173250  0.74816879
   0.00533808  0.64622175  0.74840247
   0.50032294  0.65851072  0.77320018
   0.99160194  0.32882949  0.00149920
   0.49014357  0.37764103  0.99011686
   0.30127722  0.81361120  0.98654345
   0.72091396  0.83617609  0.99267765
   0.98995848  0.33860169  0.18585333
   0.49445359  0.34133644  0.18496144
   0.26421303  0.83054174  0.17896941
   0.73393124  0.84513318  0.18250874
   0.26076914  0.15298411  0.43575541
   0.75511962  0.16525330  0.44112916
   0.00273498  0.65141832  0.43647496
   0.50001361  0.66810708  0.44129468
   0.00266554  0.31543049  0.68046582
   0.49488982  0.33192692  0.69714303
   0.25564694  0.82774105  0.69391820
   0.74768298  0.80612315  0.69175176
   0.24442378  0.16240462  0.94362651
   0.73942147  0.18466802  0.93142921
   0.00762090  0.65732927  0.94652419
 
 position of ions in cartesian coordinates  (Angst):
   1.54134000  0.96584200  2.51141000
   4.67542000  0.95123100  2.61629000
   0.01611420  3.68934000  2.50754000
   3.13686000  3.64177000  2.58739000
   0.10785600  1.80610000  5.09428000
   3.18608000  1.83331000  5.16960000
   1.56431000  4.52058000  5.16957000
   4.70782000  4.44694000  5.18481000
   1.55281000  0.87045800  7.73517000
   4.71098000  0.82836300  7.68392000
   0.03365090  3.52796000  7.68632000
   3.15400000  3.59505000  7.94100000
   6.25098760  1.79520000  0.01539720
   3.08983000  2.06168000 10.16880000
   1.89923000  4.44180000 10.13210000
   4.54459000  4.56499000 10.19510000
   6.24062740  1.84855000  1.90877000
   3.11700000  1.86348000  1.89961000
   1.66558000  4.53423000  1.83807000
   4.62665000  4.61389000  1.87442000
   1.64387000  0.83519600  4.47534000
   4.76022000  0.90217800  4.53053000
   0.01724110  3.55633000  4.48273000
   3.15205000  3.64744000  4.53223000
   0.01680340  1.72205000  6.98859000
   3.11975000  1.81211000  7.15987000
   1.61158000  4.51894000  7.12675000
   4.71334000  4.40092000  7.10450000
   1.54083000  0.88662600  9.69133000
   4.66126000  1.00817000  9.56606000
   0.04804160  3.58860000  9.72109000
 


--------------------------------------------------------------------------------------------------------


 k-point  1 :   0.1250 0.1250 0.2500  plane waves:   10349
 k-point  2 :   0.3750 0.1250 0.2500  plane waves:   10374
 k-point  3 :  -0.3750 0.1250 0.2500  plane waves:   10374
 k-point  4 :  -0.1250 0.1250 0.2500  plane waves:   10349
 k-point  5 :   0.1250 0.3750 0.2500  plane waves:   10353
 k-point  6 :   0.3750 0.3750 0.2500  plane waves:   10341
 k-point  7 :  -0.3750 0.3750 0.2500  plane waves:   10341
 k-point  8 :  -0.1250 0.3750 0.2500  plane waves:   10353
 k-point  9 :   0.1250-0.3750 0.2500  plane waves:   10353
 k-point 10 :   0.3750-0.3750 0.2500  plane waves:   10341
 k-point 11 :  -0.3750-0.3750 0.2500  plane waves:   10341
 k-point 12 :  -0.1250-0.3750 0.2500  plane waves:   10353
 k-point 13 :   0.1250-0.1250 0.2500  plane waves:   10349
 k-point 14 :   0.3750-0.1250 0.2500  plane waves:   10374
 k-point 15 :  -0.3750-0.1250 0.2500  plane waves:   10374
 k-point 16 :  -0.1250-0.1250 0.2500  plane waves:   10349

 maximum and minimum number of plane-waves per node :      1174     1130

 maximum number of plane-waves:     10374
 maximum index in each direction: 
   IXMAX=   12   IYMAX=   10   IZMAX=   19
   IXMIN=  -12   IYMIN=  -10   IZMIN=  -19


 parallel 3D FFT for wavefunctions:
    minimum data exchange during FFTs selected (reduces bandwidth)
 parallel 3D FFT for charge:
    minimum data exchange during FFTs selected (reduces bandwidth)


 total amount of memory used by VASP MPI-rank0    54108. kBytes
=======================================================================

   base      :      30000. kBytes
   nonl-proj :       5941. kBytes
   fftplans  :       1943. kBytes
   grid      :       3088. kBytes
   one-center:         62. kBytes
   wavefun   :      13074. kBytes
 
     INWAV:  cpu time    0.0000: real time    0.0000
 Broyden mixing: mesh for mixing (old mesh)
   NGX = 25   NGY = 21   NGZ = 39
  (NGX  = 96   NGY  = 84   NGZ  =160)
  gives a total of  20475 points

 initial charge density was supplied:
 charge density of overlapping atoms calculated
 number of electron     283.0000000 magnetization 
 keeping initial charge density in first step


--------------------------------------------------------------------------------------------------------


 Maximum index for augmentation-charges          803 (set IRDMAX)


--------------------------------------------------------------------------------------------------------


 First call to EWALD:  gamma=   0.251
 Maximum number of real-space cells 3x 3x 2
 Maximum number of reciprocal cells 3x 2x 4

    FEWALD:  cpu time    0.0000: real time    0.0013


--------------------------------------- Iteration      1(   1)  ---------------------------------------


    POTLOK:  cpu time    0.0160: real time    0.0233
    SETDIJ:  cpu time    0.0040: real time    0.0038
     EDDAV:  cpu time    3.0280: real time    3.0269
       DOS:  cpu time    0.0000: real time    0.0013
    --------------------------------------------
      LOOP:  cpu time    3.0480: real time    3.0554

 eigenvalue-minimisations  :  5648
 total energy-change (2. order) : 0.4829176E+04  (-0.1078924E+05)
 number of electron     283.0000000 magnetization 
 augmentation part      283.0000000 magnetization 

 Free energy of the ion-electron system (eV)
  ---------------------------------------------------
  alpha Z        PSCENC =      1589.50695893
  Ewald energy   TEWEN  =    -25316.72769601
  -Hartree energ DENC   =     -9100.72162569
  -exchange      EXHF   =         0.00000000
  -V(xc)+E(xc)   XCENC  =      1011.65884029
  PAW double counting   =     28724.48257400   -34079.19590656
  entropy T*S    EENTRO =        -0.00070770
  eigenvalues    EBANDS =      3650.88211595
  atomic energy  EATOM  =     38349.29185498
  Solvation  Ediel_sol  =         0.00000000
  ---------------------------------------------------
  free energy    TOTEN  =      4829.17640820 eV

  energy without entropy =     4829.17711590  energy(sigma->0) =     4829.17676205


--------------------------------------------------------------------------------------------------------




--------------------------------------- Iteration      1(   2)  ---------------------------------------


     EDDAV:  cpu time    2.9160: real time    2.9269
       DOS:  cpu time    0.0040: real time    0.0013
    --------------------------------------------
      LOOP:  cpu time    2.9200: real time    2.9282

 eigenvalue-minimisations  :  5376
 total energy-change (2. order) :-0.3748738E+04  (-0.3534947E+04)
 number of electron     283.0000000 magnetization 
 augmentation part      283.0000000 magnetization 

 Free energy of the ion-electron system (eV)
  ---------------------------------------------------
  alpha Z        PSCENC =      1589.50695893
  Ewald energy   TEWEN  =    -25316.72769601
  -Hartree energ DENC   =     -9100.72162569
  -exchange      EXHF   =         0.00000000
  -V(xc)+E(xc)   XCENC  =      1011.65884029
  PAW double counting   =     28724.48257400   -34079.19590656
  entropy T*S    EENTRO =        -0.00065168
  eigenvalues    EBANDS =       -97.85640347
  atomic energy  EATOM  =     38349.29185498
  Solvation  Ediel_sol  =         0.00000000
  ---------------------------------------------------
  free energy    TOTEN  =      1080.43794481 eV

  energy without entropy =     1080.43859648  energy(sigma->0) =     1080.43827065


--------------------------------------------------------------------------------------------------------




--------------------------------------- Iteration      1(   3)  ---------------------------------------


     EDDAV:  cpu time    3.3040: real time    3.3165
       DOS:  cpu time    0.0040: real time    0.0013
    --------------------------------------------
      LOOP:  cpu time    3.3080: real time    3.3178

 eigenvalue-minimisations  :  6408
 total energy-change (2. order) :-0.1129184E+04  (-0.1063961E+04)
 number of electron     283.0000000 magnetization 
 augmentation part      283.0000000 magnetization 

 Free energy of the ion-electron system (eV)
  ---------------------------------------------------
  alpha Z        PSCENC =      1589.50695893
  Ewald energy   TEWEN  =    -25316.72769601
  -Hartree energ DENC   =     -9100.72162569
  -exchange      EXHF   =         0.00000000
  -V(xc)+E(xc)   XCENC  =      1011.65884029
  PAW double counting   =     28724.48257400   -34079.19590656
  entropy T*S    EENTRO =        -0.00020686
  eigenvalues    EBANDS =     -1227.04069241
  atomic energy  EATOM  =     38349.29185498
  Solvation  Ediel_sol  =         0.00000000
  ---------------------------------------------------
  free energy    TOTEN  =       -48.74589932 eV

  energy without entropy =      -48.74569246  energy(sigma->0) =      -48.74579589


--------------------------------------------------------------------------------------------------------




--------------------------------------- Iteration      1(   4)  ---------------------------------------


     EDDAV:  cpu time    3.2040: real time    3.2147
       DOS:  cpu time    0.0000: real time    0.0013
    --------------------------------------------
      LOOP:  cpu time    3.2040: real time    3.2160

 eigenvalue-minimisations  :  6112
 total energy-change (2. order) :-0.1577725E+03  (-0.1521232E+03)
 number of electron     283.0000000 magnetization 
 augmentation part      283.0000000 magnetization 

 Free energy of the ion-electron system (eV)
  ---------------------------------------------------
  alpha Z        PSCENC =      1589.50695893
  Ewald energy   TEWEN  =    -25316.72769601
  -Hartree energ DENC   =     -9100.72162569
  -exchange      EXHF   =         0.00000000
  -V(xc)+E(xc)   XCENC  =      1011.65884029
  PAW double counting   =     28724.48257400   -34079.19590656
  entropy T*S    EENTRO =        -0.00030052
  eigenvalues    EBANDS =     -1384.81309090
  atomic energy  EATOM  =     38349.29185498
  Solvation  Ediel_sol  =         0.00000000
  ---------------------------------------------------
  free energy    TOTEN  =      -206.51839146 eV

  energy without entropy =     -206.51809095  energy(sigma->0) =     -206.51824120


--------------------------------------------------------------------------------------------------------




--------------------------------------- Iteration      1(   5)  ---------------------------------------


     EDDAV:  cpu time    4.1880: real time    4.1963
       DOS:  cpu time    0.0000: real time    0.0005
    CHARGE:  cpu time    0.1160: real time    0.1179
    MIXING:  cpu time    0.0040: real time    0.0010
    --------------------------------------------
      LOOP:  cpu time    4.3080: real time    4.3158

 eigenvalue-minimisations  :  8552
 total energy-change (2. order) :-0.1804203E+02  (-0.1786379E+02)
 number of electron     280.0000019 magnetization 
 augmentation part      140.9739195 magnetization 

 Broyden mixing:
  rms(total) = 0.29074E+01    rms(broyden)= 0.29026E+01
  rms(prec ) = 0.41622E+01
  weight for this iteration     100.00

 Free energy of the ion-electron system (eV)
  ---------------------------------------------------
  alpha Z        PSCENC =      1589.50695893
  Ewald energy   TEWEN  =    -25316.72769601
  -Hartree energ DENC   =     -9100.72162569
  -exchange      EXHF   =         0.00000000
  -V(xc)+E(xc)   XCENC  =      1011.65884029
  PAW double counting   =     28724.48257400   -34079.19590656
  entropy T*S    EENTRO =        -0.00000000
  eigenvalues    EBANDS =     -1402.85542618
  atomic energy  EATOM  =     38349.29185498
  Solvation  Ediel_sol  =         0.00000000
  ---------------------------------------------------
  free energy    TOTEN  =      -224.56042623 eV

  energy without entropy =     -224.56042623  energy(sigma->0) =     -224.56042623


--------------------------------------------------------------------------------------------------------




--------------------------------------- Iteration      1(   6)  ---------------------------------------


    POTLOK:  cpu time    0.0120: real time    0.0243
    SETDIJ:  cpu time    0.0040: real time    0.0034
     EDDAV:  cpu time    4.2520: real time    4.2518
       DOS:  cpu time    0.0000: real time    0.0006
    CHARGE:  cpu time    0.1200: real time    0.1175
    MIXING:  cpu time    0.0000: real time    0.0009
    --------------------------------------------
      LOOP:  cpu time    4.3880: real time    4.3984

 eigenvalue-minimisations  :  8672
 total energy-change (2. order) : 0.2811248E+02  (-0.1393594E+02)
 number of electron     280.0000018 magnetization 
 augmentation part      138.5850844 magnetization 

 Broyden mixing:
  rms(total) = 0.83094E+00    rms(broyden)= 0.83040E+00
  rms(prec ) = 0.10714E+01
  weight for this iteration     100.00

 eigenvalues of (default mixing * dielectric matrix)
  average eigenvalue GAMMA=   0.9248
  0.9248

 Free energy of the ion-electron system (eV)
  ---------------------------------------------------
  alpha Z        PSCENC =      1589.50695893
  Ewald energy   TEWEN  =    -25316.72769601
  -Hartree energ DENC   =     -9140.76405439
  -exchange      EXHF   =         0.00000000
  -V(xc)+E(xc)   XCENC  =      1010.07048414
  PAW double counting   =     30465.80547522   -35795.03730146
  entropy T*S    EENTRO =        -0.00000000
  eigenvalues    EBANDS =     -1358.59367052
  atomic energy  EATOM  =     38349.29185498
  Solvation  Ediel_sol  =         0.00000000
  ---------------------------------------------------
  free energy    TOTEN  =      -196.44794910 eV

  energy without entropy =     -196.44794910  energy(sigma->0) =     -196.44794910


--------------------------------------------------------------------------------------------------------




--------------------------------------- Iteration      1(   7)  ---------------------------------------


    POTLOK:  cpu time    0.0160: real time    0.0238
    SETDIJ:  cpu time    0.0000: real time    0.0033
     EDDAV:  cpu time    3.3520: real time    3.3513
       DOS:  cpu time    0.0000: real time    0.0014
    CHARGE:  cpu time    0.1200: real time    0.1184
    MIXING:  cpu time    0.0000: real time    0.0007
    --------------------------------------------
      LOOP:  cpu time    3.4880: real time    3.4989

 eigenvalue-minimisations  :  6504
 total energy-change (2. order) :-0.1426850E+01  (-0.2231671E+01)
 number of electron     280.0000017 magnetization 
 augmentation part      138.7052537 magnetization 

 Broyden mixing:
  rms(total) = 0.74035E+00    rms(broyden)= 0.74032E+00
  rms(prec ) = 0.84660E+00
  weight for this iteration     100.00

 eigenvalues of (default mixing * dielectric matrix)
  average eigenvalue GAMMA=   0.9031
  0.9031  0.9031

 Free energy of the ion-electron system (eV)
  ---------------------------------------------------
  alpha Z        PSCENC =      1589.50695893
  Ewald energy   TEWEN  =    -25316.72769601
  -Hartree energ DENC   =     -9117.97412170
  -exchange      EXHF   =         0.00000000
  -V(xc)+E(xc)   XCENC  =      1009.03039835
  PAW double counting   =     31828.78898230   -37177.12879942
  entropy T*S    EENTRO =        -0.00097892
  eigenvalues    EBANDS =     -1362.66139800
  atomic energy  EATOM  =     38349.29185498
  Solvation  Ediel_sol  =         0.00000000
  ---------------------------------------------------
  free energy    TOTEN  =      -197.87479948 eV

  energy without entropy =     -197.87382056  energy(sigma->0) =     -197.87431002


--------------------------------------------------------------------------------------------------------




--------------------------------------- Iteration      1(   8)  ---------------------------------------


    POTLOK:  cpu time    0.0160: real time    0.0242
    SETDIJ:  cpu time    0.0040: real time    0.0033
     EDDAV:  cpu time    3.4040: real time    3.4041
       DOS:  cpu time    0.0000: real time    0.0014
    CHARGE:  cpu time    0.1160: real time    0.1175
    MIXING:  cpu time    0.0040: real time    0.0007
    --------------------------------------------
      LOOP:  cpu time    3.5440: real time    3.5512

 eigenvalue-minimisations  :  6600
 total energy-change (2. order) :-0.7965837E-01  (-0.4458164E+00)
 number of electron     280.0000018 magnetization 
 augmentation part      138.7492976 magnetization 

 Broyden mixing:
  rms(total) = 0.53073E+00    rms(broyden)= 0.53072E+00
  rms(prec ) = 0.60676E+00
  weight for this iteration     100.00

 eigenvalues of (default mixing * dielectric matrix)
  average eigenvalue GAMMA=   1.2802
  2.1417  1.0852  0.6136

 Free energy of the ion-electron system (eV)
  ---------------------------------------------------
  alpha Z        PSCENC =      1589.50695893
  Ewald energy   TEWEN  =    -25316.72769601
  -Hartree energ DENC   =     -9113.31483158
  -exchange      EXHF   =         0.00000000
  -V(xc)+E(xc)   XCENC  =      1008.43832416
  PAW double counting   =     32730.19067568   -38098.69260158
  entropy T*S    EENTRO =        -0.00071303
  eigenvalues    EBANDS =     -1346.64642940
  atomic energy  EATOM  =     38349.29185498
  Solvation  Ediel_sol  =         0.00000000
  ---------------------------------------------------
  free energy    TOTEN  =      -197.95445785 eV

  energy without entropy =     -197.95374482  energy(sigma->0) =     -197.95410134


--------------------------------------------------------------------------------------------------------




--------------------------------------- Iteration      1(   9)  ---------------------------------------


    POTLOK:  cpu time    0.0120: real time    0.0256
    SETDIJ:  cpu time    0.0040: real time    0.0033
     EDDAV:  cpu time    3.9400: real time    3.9387
       DOS:  cpu time    0.0000: real time    0.0014
    CHARGE:  cpu time    0.1160: real time    0.1177
    MIXING:  cpu time    0.0040: real time    0.0008
    --------------------------------------------
      LOOP:  cpu time    4.0760: real time    4.0875

 eigenvalue-minimisations  :  7936
 total energy-change (2. order) :-0.3409999E-01  (-0.2064091E+00)
 number of electron     280.0000018 magnetization 
 augmentation part      138.8255313 magnetization 

 Broyden mixing:
  rms(total) = 0.19657E+00    rms(broyden)= 0.19650E+00
  rms(prec ) = 0.31417E+00
  weight for this iteration     100.00

 eigenvalues of (default mixing * dielectric matrix)
  average eigenvalue GAMMA=   1.2488
  2.5871  0.9469  0.9469  0.5142

 Free energy of the ion-electron system (eV)
  ---------------------------------------------------
  alpha Z        PSCENC =      1589.50695893
  Ewald energy   TEWEN  =    -25316.72769601
  -Hartree energ DENC   =     -9105.16087866
  -exchange      EXHF   =         0.00000000
  -V(xc)+E(xc)   XCENC  =      1007.56420132
  PAW double counting   =     34545.03363824   -39948.25099658
  entropy T*S    EENTRO =        -0.00130583
  eigenvalues    EBANDS =     -1319.24433424
  atomic energy  EATOM  =     38349.29185498
  Solvation  Ediel_sol  =         0.00000000
  ---------------------------------------------------
  free energy    TOTEN  =      -197.98855784 eV

  energy without entropy =     -197.98725201  energy(sigma->0) =     -197.98790493


--------------------------------------------------------------------------------------------------------




--------------------------------------- Iteration      1(  10)  ---------------------------------------


    POTLOK:  cpu time    0.0120: real time    0.0250
    SETDIJ:  cpu time    0.0040: real time    0.0033
     EDDAV:  cpu time    3.5120: real time    3.5132
       DOS:  cpu time    0.0040: real time    0.0013
    CHARGE:  cpu time    0.1160: real time    0.1177
    MIXING:  cpu time    0.0000: real time    0.0008
    --------------------------------------------
      LOOP:  cpu time    3.6480: real time    3.6614

 eigenvalue-minimisations  :  6888
 total energy-change (2. order) : 0.2934846E-01  (-0.1023650E+00)
 number of electron     280.0000017 magnetization 
 augmentation part      138.7728529 magnetization 

 Broyden mixing:
  rms(total) = 0.15030E+00    rms(broyden)= 0.15025E+00
  rms(prec ) = 0.25484E+00
  weight for this iteration     100.00

 eigenvalues of (default mixing * dielectric matrix)
  average eigenvalue GAMMA=   1.0835
  2.5558  0.9273  0.9273  0.5881  0.4189

 Free energy of the ion-electron system (eV)
  ---------------------------------------------------
  alpha Z        PSCENC =      1589.50695893
  Ewald energy   TEWEN  =    -25316.72769601
  -Hartree energ DENC   =     -9103.28152244
  -exchange      EXHF   =         0.00000000
  -V(xc)+E(xc)   XCENC  =      1007.72488098
  PAW double counting   =     35096.20001689   -40502.67178334
  entropy T*S    EENTRO =        -0.00118959
  eigenvalues    EBANDS =     -1318.00072978
  atomic energy  EATOM  =     38349.29185498
  Solvation  Ediel_sol  =         0.00000000
  ---------------------------------------------------
  free energy    TOTEN  =      -197.95920938 eV

  energy without entropy =     -197.95801978  energy(sigma->0) =     -197.95861458


--------------------------------------------------------------------------------------------------------




--------------------------------------- Iteration      1(  11)  ---------------------------------------


    POTLOK:  cpu time    0.0160: real time    0.0243
    SETDIJ:  cpu time    0.0040: real time    0.0034
     EDDAV:  cpu time    3.7680: real time    3.7668
       DOS:  cpu time    0.0000: real time    0.0013
    CHARGE:  cpu time    0.1160: real time    0.1177
    MIXING:  cpu time    0.0040: real time    0.0008
    --------------------------------------------
      LOOP:  cpu time    3.9080: real time    3.9144

 eigenvalue-minimisations  :  7504
 total energy-change (2. order) : 0.2747498E-01  (-0.4393731E-01)
 number of electron     280.0000018 magnetization 
 augmentation part      138.7352387 magnetization 

 Broyden mixing:
  rms(total) = 0.74075E-01    rms(broyden)= 0.74049E-01
  rms(prec ) = 0.84652E-01
  weight for this iteration     100.00

 eigenvalues of (default mixing * dielectric matrix)
  average eigenvalue GAMMA=   1.0237
  2.4796  0.9171  0.9171  0.9397  0.5069  0.3815

 Free energy of the ion-electron system (eV)
  ---------------------------------------------------
  alpha Z        PSCENC =      1589.50695893
  Ewald energy   TEWEN  =    -25316.72769601
  -Hartree energ DENC   =     -9103.28146356
  -exchange      EXHF   =         0.00000000
  -V(xc)+E(xc)   XCENC  =      1007.84323542
  PAW double counting   =     35072.25086223   -40476.44540515
  entropy T*S    EENTRO =        -0.00189434
  eigenvalues    EBANDS =     -1320.36818690
  atomic energy  EATOM  =     38349.29185498
  Solvation  Ediel_sol  =         0.00000000
  ---------------------------------------------------
  free energy    TOTEN  =      -197.93173439 eV

  energy without entropy =     -197.92984005  energy(sigma->0) =     -197.93078722


--------------------------------------------------------------------------------------------------------




--------------------------------------- Iteration      1(  12)  ---------------------------------------


    POTLOK:  cpu time    0.0120: real time    0.0237
    SETDIJ:  cpu time    0.0040: real time    0.0033
     EDDAV:  cpu time    3.5360: real time    3.5379
       DOS:  cpu time    0.0040: real time    0.0014
    CHARGE:  cpu time    0.1160: real time    0.1179
    MIXING:  cpu time    0.0000: real time    0.0008
    --------------------------------------------
      LOOP:  cpu time    3.6720: real time    3.6850

 eigenvalue-minimisations  :  6944
 total energy-change (2. order) :-0.4934578E-02  (-0.1030817E-01)
 number of electron     280.0000017 magnetization 
 augmentation part      138.7230404 magnetization 

 Broyden mixing:
  rms(total) = 0.44937E-01    rms(broyden)= 0.44929E-01
  rms(prec ) = 0.50275E-01
  weight for this iteration     100.00

 eigenvalues of (default mixing * dielectric matrix)
  average eigenvalue GAMMA=   1.0005
  2.4417  1.0199  1.0199  1.0338  0.5421  0.5421  0.4040

 Free energy of the ion-electron system (eV)
  ---------------------------------------------------
  alpha Z        PSCENC =      1589.50695893
  Ewald energy   TEWEN  =    -25316.72769601
  -Hartree energ DENC   =     -9103.60272109
  -exchange      EXHF   =         0.00000000
  -V(xc)+E(xc)   XCENC  =      1007.88624196
  PAW double counting   =     34988.75007102   -40390.98602154
  entropy T*S    EENTRO =        -0.00193009
  eigenvalues    EBANDS =     -1322.05342713
  atomic energy  EATOM  =     38349.29185498
  Solvation  Ediel_sol  =         0.00000000
  ---------------------------------------------------
  free energy    TOTEN  =      -197.93666897 eV

  energy without entropy =     -197.93473888  energy(sigma->0) =     -197.93570393


--------------------------------------------------------------------------------------------------------




--------------------------------------- Iteration      1(  13)  ---------------------------------------


    POTLOK:  cpu time    0.0160: real time    0.0243
    SETDIJ:  cpu time    0.0040: real time    0.0033
     EDDAV:  cpu time    3.2960: real time    3.2959
       DOS:  cpu time    0.0000: real time    0.0014
    CHARGE:  cpu time    0.1200: real time    0.1176
    MIXING:  cpu time    0.0000: real time    0.0009
    --------------------------------------------
      LOOP:  cpu time    3.4360: real time    3.4434

 eigenvalue-minimisations  :  6344
 total energy-change (2. order) :-0.2372754E-02  (-0.2925428E-02)
 number of electron     280.0000017 magnetization 
 augmentation part      138.7231210 magnetization 

 Broyden mixing:
  rms(total) = 0.28272E-01    rms(broyden)= 0.28268E-01
  rms(prec ) = 0.31815E-01
  weight for this iteration     100.00

 eigenvalues of (default mixing * dielectric matrix)
  average eigenvalue GAMMA=   1.0552
  2.4769  1.2704  1.2704  1.2271  0.6633  0.6633  0.4810  0.3891

 Free energy of the ion-electron system (eV)
  ---------------------------------------------------
  alpha Z        PSCENC =      1589.50695893
  Ewald energy   TEWEN  =    -25316.72769601
  -Hartree energ DENC   =     -9103.84440658
  -exchange      EXHF   =         0.00000000
  -V(xc)+E(xc)   XCENC  =      1007.88384554
  PAW double counting   =     34957.68687636   -40359.41684320
  entropy T*S    EENTRO =        -0.00186135
  eigenvalues    EBANDS =     -1322.31777040
  atomic energy  EATOM  =     38349.29185498
  Solvation  Ediel_sol  =         0.00000000
  ---------------------------------------------------
  free energy    TOTEN  =      -197.93904173 eV

  energy without entropy =     -197.93718038  energy(sigma->0) =     -197.93811105


--------------------------------------------------------------------------------------------------------




--------------------------------------- Iteration      1(  14)  ---------------------------------------


    POTLOK:  cpu time    0.0120: real time    0.0234
    SETDIJ:  cpu time    0.0040: real time    0.0033
     EDDAV:  cpu time    3.2600: real time    3.2578
       DOS:  cpu time    0.0000: real time    0.0014
    CHARGE:  cpu time    0.1160: real time    0.1178
    MIXING:  cpu time    0.0040: real time    0.0009
    --------------------------------------------
      LOOP:  cpu time    3.3960: real time    3.4046

 eigenvalue-minimisations  :  6232
 total energy-change (2. order) :-0.1239642E-02  (-0.7829753E-03)
 number of electron     280.0000017 magnetization 
 augmentation part      138.7256924 magnetization 

 Broyden mixing:
  rms(total) = 0.14791E-01    rms(broyden)= 0.14787E-01
  rms(prec ) = 0.20781E-01
  weight for this iteration     100.00

 eigenvalues of (default mixing * dielectric matrix)
  average eigenvalue GAMMA=   1.1115
  2.4756  2.4756  1.0263  1.0263  0.9150  0.6172  0.6172  0.3925  0.4576

 Free energy of the ion-electron system (eV)
  ---------------------------------------------------
  alpha Z        PSCENC =      1589.50695893
  Ewald energy   TEWEN  =    -25316.72769601
  -Hartree energ DENC   =     -9104.08613172
  -exchange      EXHF   =         0.00000000
  -V(xc)+E(xc)   XCENC  =      1007.86331934
  PAW double counting   =     34956.44246876   -40358.06744624
  entropy T*S    EENTRO =        -0.00197454
  eigenvalues    EBANDS =     -1322.16163487
  atomic energy  EATOM  =     38349.29185498
  Solvation  Ediel_sol  =         0.00000000
  ---------------------------------------------------
  free energy    TOTEN  =      -197.94028137 eV

  energy without entropy =     -197.93830683  energy(sigma->0) =     -197.93929410


--------------------------------------------------------------------------------------------------------




--------------------------------------- Iteration      1(  15)  ---------------------------------------


    POTLOK:  cpu time    0.0120: real time    0.0246
    SETDIJ:  cpu time    0.0040: real time    0.0033
     EDDAV:  cpu time    3.5640: real time    3.5630
       DOS:  cpu time    0.0000: real time    0.0013
    CHARGE:  cpu time    0.1200: real time    0.1177
    MIXING:  cpu time    0.0000: real time    0.0010
    --------------------------------------------
      LOOP:  cpu time    3.7000: real time    3.7110

 eigenvalue-minimisations  :  7008
 total energy-change (2. order) :-0.2265385E-03  (-0.4220822E-03)
 number of electron     280.0000017 magnetization 
 augmentation part      138.7276460 magnetization 

 Broyden mixing:
  rms(total) = 0.75994E-02    rms(broyden)= 0.75885E-02
  rms(prec ) = 0.10539E-01
  weight for this iteration     100.00

 eigenvalues of (default mixing * dielectric matrix)
  average eigenvalue GAMMA=   1.0551
  2.6056  2.2321  1.0070  1.0070  1.0306  0.6836  0.6836  0.5128  0.3943  0.3943

 Free energy of the ion-electron system (eV)
  ---------------------------------------------------
  alpha Z        PSCENC =      1589.50695893
  Ewald energy   TEWEN  =    -25316.72769601
  -Hartree energ DENC   =     -9104.36464210
  -exchange      EXHF   =         0.00000000
  -V(xc)+E(xc)   XCENC  =      1007.87511256
  PAW double counting   =     34951.04166656   -40352.24619220
  entropy T*S    EENTRO =        -0.00187420
  eigenvalues    EBANDS =     -1322.31569643
  atomic energy  EATOM  =     38349.29185498
  Solvation  Ediel_sol  =         0.00000000
  ---------------------------------------------------
  free energy    TOTEN  =      -197.94050791 eV

  energy without entropy =     -197.93863370  energy(sigma->0) =     -197.93957081


--------------------------------------------------------------------------------------------------------




--------------------------------------- Iteration      1(  16)  ---------------------------------------


    POTLOK:  cpu time    0.0120: real time    0.0243
    SETDIJ:  cpu time    0.0040: real time    0.0034
     EDDAV:  cpu time    3.2040: real time    3.2037
       DOS:  cpu time    0.0040: real time    0.0013
    CHARGE:  cpu time    0.1160: real time    0.1176
    MIXING:  cpu time    0.0000: real time    0.0010
    --------------------------------------------
      LOOP:  cpu time    3.3400: real time    3.3513

 eigenvalue-minimisations  :  6104
 total energy-change (2. order) :-0.7446889E-04  (-0.1923049E-03)
 number of electron     280.0000017 magnetization 
 augmentation part      138.7259330 magnetization 

 Broyden mixing:
  rms(total) = 0.36966E-02    rms(broyden)= 0.36955E-02
  rms(prec ) = 0.46575E-02
  weight for this iteration     100.00

 eigenvalues of (default mixing * dielectric matrix)
  average eigenvalue GAMMA=   1.0328
  2.5936  2.1578  1.0315  1.0315  1.0552  0.8243  0.8243  0.5168  0.5168  0.3898
  0.4193

 Free energy of the ion-electron system (eV)
  ---------------------------------------------------
  alpha Z        PSCENC =      1589.50695893
  Ewald energy   TEWEN  =    -25316.72769601
  -Hartree energ DENC   =     -9104.49823122
  -exchange      EXHF   =         0.00000000
  -V(xc)+E(xc)   XCENC  =      1007.88594182
  PAW double counting   =     34955.52905187   -40356.83190736
  entropy T*S    EENTRO =        -0.00190698
  eigenvalues    EBANDS =     -1322.09464841
  atomic energy  EATOM  =     38349.29185498
  Solvation  Ediel_sol  =         0.00000000
  ---------------------------------------------------
  free energy    TOTEN  =      -197.94058238 eV

  energy without entropy =     -197.93867539  energy(sigma->0) =     -197.93962889


--------------------------------------------------------------------------------------------------------




--------------------------------------- Iteration      1(  17)  ---------------------------------------


    POTLOK:  cpu time    0.0160: real time    0.0248
    SETDIJ:  cpu time    0.0040: real time    0.0033
     EDDAV:  cpu time    2.6480: real time    2.6509
       DOS:  cpu time    0.0040: real time    0.0013
    --------------------------------------------
      LOOP:  cpu time    2.6720: real time    2.6803

 eigenvalue-minimisations  :  4664
 total energy-change (2. order) :-0.1024808E-04  (-0.3851729E-04)
 number of electron     280.0000017 magnetization 
 augmentation part      138.7259330 magnetization 

 Free energy of the ion-electron system (eV)
  ---------------------------------------------------
  alpha Z        PSCENC =      1589.50695893
  Ewald energy   TEWEN  =    -25316.72769601
  -Hartree energ DENC   =     -9104.64446192
  -exchange      EXHF   =         0.00000000
  -V(xc)+E(xc)   XCENC  =      1007.89513192
  PAW double counting   =     34955.97143780   -40357.28597266
  entropy T*S    EENTRO =        -0.00190718
  eigenvalues    EBANDS =     -1321.94593848
  atomic energy  EATOM  =     38349.29185498
  Solvation  Ediel_sol  =         0.00000000
  ---------------------------------------------------
  free energy    TOTEN  =      -197.94059262 eV

  energy without entropy =     -197.93868544  energy(sigma->0) =     -197.93963903


--------------------------------------------------------------------------------------------------------




 average (electrostatic) potential at core
  the test charge radii are     1.0314  0.7089
  (the norm of the test charge is              1.0000)
       1 -63.2469       2 -63.1715       3 -63.2893       4 -63.0570       5 -63.1363
       6 -63.2864       7 -63.2434       8 -63.2841       9 -63.0788      10 -63.2073
      11 -63.2191      12 -64.0667      13 -63.0253      14 -64.0982      15 -64.1329
      16 -64.1747      17 -62.1372      18 -62.2400      19 -62.1578      20 -62.2112
      21 -62.2262      22 -62.1799      23 -62.2410      24 -62.1870      25 -62.0871
      26 -62.1817      27 -62.2159      28 -62.2696      29 -62.1978      30 -62.3339
      31 -62.1673
 
 
 
 E-fermi :   4.9300     XC(G=0): -11.6702     alpha+bet :-13.5554


 k-point     1 :       0.1250    0.1250    0.2500
  band No.  band energies     occupation 
      1     -10.5075      2.00000
      2     -10.1921      2.00000
      3      -9.8966      2.00000
      4      -9.8070      2.00000
      5      -9.7800      2.00000
      6      -9.7238      2.00000
      7      -9.6839      2.00000
      8      -9.6329      2.00000
      9      -9.6157      2.00000
     10      -9.5908      2.00000
     11      -9.5626      2.00000
     12      -9.5460      2.00000
     13      -9.5196      2.00000
     14      -9.4339      2.00000
     15      -9.3587      2.00000
     16      -8.7787      2.00000
     17      -8.6979      2.00000
     18      -8.6783      2.00000
     19      -8.6536      2.00000
     20      -8.6179      2.00000
     21      -8.5702      2.00000
     22      -8.5429      2.00000
     23      -8.5233      2.00000
     24      -8.4810      2.00000
     25      -8.4737      2.00000
     26      -8.4650      2.00000
     27      -8.4460      2.00000
     28      -8.4323      2.00000
     29      -8.3812      2.00000
     30      -8.3566      2.00000
     31      -8.3274      2.00000
     32      -8.3101      2.00000
     33      -8.2633      2.00000
     34      -8.2299      2.00000
     35      -8.0949      2.00000
     36      -7.8901      2.00000
     37      -7.8875      2.00000
     38      -7.8445      2.00000
     39      -7.8340      2.00000
     40      -7.8271      2.00000
     41      -7.8193      2.00000
     42      -7.8119      2.00000
     43      -7.7959      2.00000
     44      -7.7800      2.00000
     45      -7.7720      2.00000
     46      -7.7654      2.00000
     47      -7.7563      2.00000
     48      -7.7434      2.00000
     49      -7.7384      2.00000
     50      -7.7170      2.00000
     51      -7.7116      2.00000
     52      -7.7006      2.00000
     53      -7.6860      2.00000
     54      -7.6793      2.00000
     55      -7.6727      2.00000
     56      -7.6639      2.00000
     57      -7.6566      2.00000
     58      -7.6488      2.00000
     59      -7.6402      2.00000
     60      -7.6353      2.00000
     61      -7.6273      2.00000
     62      -7.6192      2.00000
     63      -7.6053      2.00000
     64      -7.5954      2.00000
     65      -7.5925      2.00000
     66      -7.5852      2.00000
     67      -7.5754      2.00000
     68      -7.5702      2.00000
     69      -7.5631      2.00000
     70      -7.5542      2.00000
     71      -7.5421      2.00000
     72      -7.5355      2.00000
     73      -7.5266      2.00000
     74      -7.5132      2.00000
     75      -7.5016      2.00000
     76      -7.4896      2.00000
     77      -7.4602      2.00000
     78      -7.4478      2.00000
     79      -7.4377      2.00000
     80      -7.4333      2.00000
     81      -7.4138      2.00000
     82      -7.3949      2.00000
     83      -7.2097      2.00000
     84      -6.9335      2.00000
     85      -6.7002      2.00000
     86      -6.6393      2.00000
     87      -6.4748      2.00000
     88      -6.3898      2.00000
     89      -6.2887      2.00000
     90      -6.1844      2.00000
     91      -6.1270      2.00000
     92      -6.0305      2.00000
     93      -5.8890      2.00000
     94      -5.8141      2.00000
     95      -5.7982      2.00000
     96      -2.1558      2.00000
     97      -1.1313      2.00000
     98      -1.0049      2.00000
     99      -0.8172      2.00000
    100      -0.7334      2.00000
    101      -0.4866      2.00000
    102      -0.4627      2.00000
    103      -0.3929      2.00000
    104      -0.2818      2.00000
    105      -0.2481      2.00000
    106       0.2423      2.00000
    107       0.3738      2.00000
    108       0.5447      2.00000
    109       0.7909      2.00000
    110       1.1113      2.00000
    111       1.3567      2.00000
    112       1.5032      2.00000
    113       1.6170      2.00000
    114       1.6894      2.00000
    115       2.1437      2.00000
    116       2.2280      2.00000
    117       2.4225      2.00000
    118       2.5777      2.00000
    119       2.7590      2.00000
    120       2.8777      2.00000
    121       3.0833      2.00000
    122       3.1402      2.00000
    123       3.2645      2.00000
    124       3.3040      2.00000
    125       3.3649      2.00000
    126       3.4739      2.00000
    127       3.5750      2.00000
    128       3.6924      2.00000
    129       3.8110      2.00000
    130       3.9883      2.00000
    131       4.0844      2.00000
    132       4.1063      2.00000
    133       4.1764      2.00000
    134       4.2826      2.00000
    135       4.3592      2.00000
    136       4.4941      2.00000
    137       4.6844      2.00000
    138       4.8138      2.00000
    139       4.9192      1.87583
    140       5.0570      0.00000
    141       5.2202      0.00000
    142       7.3393      0.00000
    143       7.6855      0.00000
    144       8.3411      0.00000
    145       9.0500      0.00000
    146       9.9610      0.00000
    147      10.1682      0.00000
    148      10.5157      0.00000
    149      10.6820      0.00000
    150      10.7936      0.00000
    151      10.9348      0.00000
    152      11.1077      0.00000
    153      11.1956      0.00000
    154      11.2732      0.00000
    155      11.5481      0.00000
    156      11.7268      0.00000
    157      11.9174      0.00000
    158      12.2235      0.00000
    159      12.5485      0.00000
    160      12.6589      0.00000
    161      12.7430      0.00000
    162      12.9821      0.00000
    163      13.1315      0.00000
    164      13.3451      0.00000
    165      13.3848      0.00000
    166      13.5966      0.00000
    167      13.7328      0.00000
    168      13.9999      0.00000

 k-point     2 :       0.3750    0.1250    0.2500
  band No.  band energies     occupation 
      1     -10.3115      2.00000
      2     -10.0658      2.00000
      3     -10.0127      2.00000
      4      -9.8356      2.00000
      5      -9.7992      2.00000
      6      -9.7490      2.00000
      7      -9.6667      2.00000
      8      -9.6501      2.00000
      9      -9.6217      2.00000
     10      -9.5934      2.00000
     11      -9.5679      2.00000
     12      -9.5492      2.00000
     13      -9.5118      2.00000
     14      -9.4416      2.00000
     15      -9.3155      2.00000
     16      -8.7835      2.00000
     17      -8.7013      2.00000
     18      -8.6691      2.00000
     19      -8.6492      2.00000
     20      -8.6248      2.00000
     21      -8.5889      2.00000
     22      -8.5458      2.00000
     23      -8.5235      2.00000
     24      -8.4902      2.00000
     25      -8.4777      2.00000
     26      -8.4663      2.00000
     27      -8.4549      2.00000
     28      -8.4380      2.00000
     29      -8.4278      2.00000
     30      -8.3568      2.00000
     31      -8.3270      2.00000
     32      -8.3093      2.00000
     33      -8.2565      2.00000
     34      -8.2096      2.00000
     35      -8.0764      2.00000
     36      -7.8655      2.00000
     37      -7.8610      2.00000
     38      -7.8387      2.00000
     39      -7.8271      2.00000
     40      -7.8209      2.00000
     41      -7.8153      2.00000
     42      -7.7914      2.00000
     43      -7.7831      2.00000
     44      -7.7729      2.00000
     45      -7.7586      2.00000
     46      -7.7475      2.00000
     47      -7.7414      2.00000
     48      -7.7353      2.00000
     49      -7.7270      2.00000
     50      -7.7193      2.00000
     51      -7.7094      2.00000
     52      -7.7056      2.00000
     53      -7.6924      2.00000
     54      -7.6864      2.00000
     55      -7.6807      2.00000
     56      -7.6740      2.00000
     57      -7.6554      2.00000
     58      -7.6535      2.00000
     59      -7.6444      2.00000
     60      -7.6349      2.00000
     61      -7.6290      2.00000
     62      -7.6183      2.00000
     63      -7.6120      2.00000
     64      -7.6097      2.00000
     65      -7.6009      2.00000
     66      -7.5931      2.00000
     67      -7.5898      2.00000
     68      -7.5765      2.00000
     69      -7.5679      2.00000
     70      -7.5620      2.00000
     71      -7.5553      2.00000
     72      -7.5469      2.00000
     73      -7.5400      2.00000
     74      -7.5161      2.00000
     75      -7.5056      2.00000
     76      -7.4948      2.00000
     77      -7.4825      2.00000
     78      -7.4569      2.00000
     79      -7.4453      2.00000
     80      -7.4369      2.00000
     81      -7.4173      2.00000
     82      -7.3965      2.00000
     83      -7.3798      2.00000
     84      -7.2278      2.00000
     85      -6.9684      2.00000
     86      -6.6986      2.00000
     87      -6.4430      2.00000
     88      -6.2856      2.00000
     89      -6.2151      2.00000
     90      -6.1320      2.00000
     91      -6.0505      2.00000
     92      -6.0084      2.00000
     93      -5.8960      2.00000
     94      -5.8349      2.00000
     95      -5.7631      2.00000
     96      -2.1650      2.00000
     97      -0.8797      2.00000
     98      -0.7855      2.00000
     99      -0.6060      2.00000
    100      -0.5178      2.00000
    101      -0.4474      2.00000
    102      -0.3540      2.00000
    103      -0.2657      2.00000
    104      -0.0819      2.00000
    105       0.1598      2.00000
    106       0.4056      2.00000
    107       0.5670      2.00000
    108       0.7371      2.00000
    109       0.9727      2.00000
    110       1.1538      2.00000
    111       1.3708      2.00000
    112       1.4422      2.00000
    113       1.7183      2.00000
    114       1.8800      2.00000
    115       2.0175      2.00000
    116       2.0955      2.00000
    117       2.3288      2.00000
    118       2.3951      2.00000
    119       2.6742      2.00000
    120       2.7464      2.00000
    121       2.7817      2.00000
    122       2.9211      2.00000
    123       3.0102      2.00000
    124       3.1873      2.00000
    125       3.3215      2.00000
    126       3.3615      2.00000
    127       3.4163      2.00000
    128       3.5755      2.00000
    129       3.6231      2.00000
    130       3.7411      2.00000
    131       3.8929      2.00000
    132       4.0132      2.00000
    133       4.0964      2.00000
    134       4.1883      2.00000
    135       4.2588      2.00000
    136       4.3261      2.00000
    137       4.4555      2.00000
    138       4.5925      2.00000
    139       4.7237      2.00000
    140       4.8987      1.99999
    141       4.9982      0.00000
    142       6.7294      0.00000
    143       7.7856      0.00000
    144       7.9677      0.00000
    145       9.7009      0.00000
    146      10.4173      0.00000
    147      10.6355      0.00000
    148      10.8356      0.00000
    149      11.0169      0.00000
    150      11.1487      0.00000
    151      11.3346      0.00000
    152      11.4515      0.00000
    153      11.6872      0.00000
    154      11.8171      0.00000
    155      12.0141      0.00000
    156      12.0895      0.00000
    157      12.2038      0.00000
    158      12.3750      0.00000
    159      12.6458      0.00000
    160      12.7554      0.00000
    161      12.9323      0.00000
    162      13.0897      0.00000
    163      13.2346      0.00000
    164      13.3253      0.00000
    165      13.4797      0.00000
    166      13.5560      0.00000
    167      13.6365      0.00000
    168      13.7849      0.00000

 k-point     3 :      -0.3750    0.1250    0.2500
  band No.  band energies     occupation 
      1     -10.3118      2.00000
      2     -10.0704      2.00000
      3      -9.9900      2.00000
      4      -9.8745      2.00000
      5      -9.7946      2.00000
      6      -9.7263      2.00000
      7      -9.6724      2.00000
      8      -9.6490      2.00000
      9      -9.6270      2.00000
     10      -9.5884      2.00000
     11      -9.5706      2.00000
     12      -9.5463      2.00000
     13      -9.5150      2.00000
     14      -9.4411      2.00000
     15      -9.3156      2.00000
     16      -8.7822      2.00000
     17      -8.7000      2.00000
     18      -8.6733      2.00000
     19      -8.6527      2.00000
     20      -8.6161      2.00000
     21      -8.5883      2.00000
     22      -8.5489      2.00000
     23      -8.5214      2.00000
     24      -8.4913      2.00000
     25      -8.4772      2.00000
     26      -8.4700      2.00000
     27      -8.4519      2.00000
     28      -8.4402      2.00000
     29      -8.4275      2.00000
     30      -8.3539      2.00000
     31      -8.3291      2.00000
     32      -8.3082      2.00000
     33      -8.2574      2.00000
     34      -8.2104      2.00000
     35      -8.0753      2.00000
     36      -7.8653      2.00000
     37      -7.8617      2.00000
     38      -7.8377      2.00000
     39      -7.8280      2.00000
     40      -7.8220      2.00000
     41      -7.8096      2.00000
     42      -7.7958      2.00000
     43      -7.7804      2.00000
     44      -7.7737      2.00000
     45      -7.7629      2.00000
     46      -7.7532      2.00000
     47      -7.7394      2.00000
     48      -7.7303      2.00000
     49      -7.7288      2.00000
     50      -7.7177      2.00000
     51      -7.7091      2.00000
     52      -7.7064      2.00000
     53      -7.6933      2.00000
     54      -7.6859      2.00000
     55      -7.6784      2.00000
     56      -7.6657      2.00000
     57      -7.6553      2.00000
     58      -7.6509      2.00000
     59      -7.6433      2.00000
     60      -7.6327      2.00000
     61      -7.6290      2.00000
     62      -7.6246      2.00000
     63      -7.6140      2.00000
     64      -7.6083      2.00000
     65      -7.6025      2.00000
     66      -7.5971      2.00000
     67      -7.5874      2.00000
     68      -7.5783      2.00000
     69      -7.5688      2.00000
     70      -7.5645      2.00000
     71      -7.5564      2.00000
     72      -7.5432      2.00000
     73      -7.5392      2.00000
     74      -7.5257      2.00000
     75      -7.5094      2.00000
     76      -7.4888      2.00000
     77      -7.4740      2.00000
     78      -7.4579      2.00000
     79      -7.4523      2.00000
     80      -7.4410      2.00000
     81      -7.4201      2.00000
     82      -7.3927      2.00000
     83      -7.3814      2.00000
     84      -7.2156      2.00000
     85      -6.9712      2.00000
     86      -6.6783      2.00000
     87      -6.4522      2.00000
     88      -6.3011      2.00000
     89      -6.2172      2.00000
     90      -6.1370      2.00000
     91      -6.0595      2.00000
     92      -5.9938      2.00000
     93      -5.9195      2.00000
     94      -5.8161      2.00000
     95      -5.7533      2.00000
     96      -2.1568      2.00000
     97      -0.8769      2.00000
     98      -0.7879      2.00000
     99      -0.6461      2.00000
    100      -0.5350      2.00000
    101      -0.4142      2.00000
    102      -0.3563      2.00000
    103      -0.2447      2.00000
    104      -0.0904      2.00000
    105       0.1547      2.00000
    106       0.3714      2.00000
    107       0.5626      2.00000
    108       0.8156      2.00000
    109       0.9886      2.00000
    110       1.1321      2.00000
    111       1.4065      2.00000
    112       1.4490      2.00000
    113       1.6754      2.00000
    114       1.8557      2.00000
    115       2.0517      2.00000
    116       2.0833      2.00000
    117       2.2899      2.00000
    118       2.3903      2.00000
    119       2.6294      2.00000
    120       2.6970      2.00000
    121       2.8079      2.00000
    122       2.9495      2.00000
    123       3.0462      2.00000
    124       3.2194      2.00000
    125       3.3146      2.00000
    126       3.3740      2.00000
    127       3.4222      2.00000
    128       3.5020      2.00000
    129       3.6132      2.00000
    130       3.8137      2.00000
    131       3.8889      2.00000
    132       4.0487      2.00000
    133       4.1062      2.00000
    134       4.1796      2.00000
    135       4.2401      2.00000
    136       4.3057      2.00000
    137       4.4499      2.00000
    138       4.6042      2.00000
    139       4.6905      2.00000
    140       4.9258      1.45103
    141       4.9963      0.00000
    142       6.8389      0.00000
    143       7.7050      0.00000
    144       7.9012      0.00000
    145       9.7229      0.00000
    146      10.4060      0.00000
    147      10.6578      0.00000
    148      10.8054      0.00000
    149      11.0101      0.00000
    150      11.1559      0.00000
    151      11.3669      0.00000
    152      11.4513      0.00000
    153      11.6541      0.00000
    154      11.8566      0.00000
    155      11.9051      0.00000
    156      12.0986      0.00000
    157      12.2506      0.00000
    158      12.3812      0.00000
    159      12.6980      0.00000
    160      12.7860      0.00000
    161      13.0250      0.00000
    162      13.1200      0.00000
    163      13.1687      0.00000
    164      13.3206      0.00000
    165      13.4261      0.00000
    166      13.5748      0.00000
    167      13.7001      0.00000
    168      13.8083      0.00000

 k-point     4 :      -0.1250    0.1250    0.2500
  band No.  band energies     occupation 
      1     -10.5076      2.00000
      2     -10.1899      2.00000
      3      -9.8952      2.00000
      4      -9.8146      2.00000
      5      -9.7715      2.00000
      6      -9.7385      2.00000
      7      -9.6735      2.00000
      8      -9.6324      2.00000
      9      -9.6198      2.00000
     10      -9.5843      2.00000
     11      -9.5655      2.00000
     12      -9.5441      2.00000
     13      -9.5232      2.00000
     14      -9.4335      2.00000
     15      -9.3587      2.00000
     16      -8.7779      2.00000
     17      -8.6939      2.00000
     18      -8.6816      2.00000
     19      -8.6557      2.00000
     20      -8.6151      2.00000
     21      -8.5674      2.00000
     22      -8.5495      2.00000
     23      -8.5194      2.00000
     24      -8.4815      2.00000
     25      -8.4737      2.00000
     26      -8.4660      2.00000
     27      -8.4469      2.00000
     28      -8.4314      2.00000
     29      -8.3861      2.00000
     30      -8.3520      2.00000
     31      -8.3264      2.00000
     32      -8.3085      2.00000
     33      -8.2624      2.00000
     34      -8.2339      2.00000
     35      -8.0936      2.00000
     36      -7.8921      2.00000
     37      -7.8860      2.00000
     38      -7.8433      2.00000
     39      -7.8361      2.00000
     40      -7.8263      2.00000
     41      -7.8168      2.00000
     42      -7.8113      2.00000
     43      -7.7949      2.00000
     44      -7.7823      2.00000
     45      -7.7706      2.00000
     46      -7.7676      2.00000
     47      -7.7570      2.00000
     48      -7.7437      2.00000
     49      -7.7397      2.00000
     50      -7.7173      2.00000
     51      -7.7128      2.00000
     52      -7.6959      2.00000
     53      -7.6849      2.00000
     54      -7.6832      2.00000
     55      -7.6705      2.00000
     56      -7.6594      2.00000
     57      -7.6498      2.00000
     58      -7.6476      2.00000
     59      -7.6425      2.00000
     60      -7.6368      2.00000
     61      -7.6276      2.00000
     62      -7.6240      2.00000
     63      -7.6072      2.00000
     64      -7.5992      2.00000
     65      -7.5919      2.00000
     66      -7.5865      2.00000
     67      -7.5755      2.00000
     68      -7.5675      2.00000
     69      -7.5617      2.00000
     70      -7.5518      2.00000
     71      -7.5468      2.00000
     72      -7.5335      2.00000
     73      -7.5293      2.00000
     74      -7.5169      2.00000
     75      -7.5023      2.00000
     76      -7.4890      2.00000
     77      -7.4590      2.00000
     78      -7.4466      2.00000
     79      -7.4400      2.00000
     80      -7.4338      2.00000
     81      -7.4130      2.00000
     82      -7.3955      2.00000
     83      -7.2058      2.00000
     84      -6.9253      2.00000
     85      -6.6991      2.00000
     86      -6.6265      2.00000
     87      -6.4914      2.00000
     88      -6.3929      2.00000
     89      -6.2682      2.00000
     90      -6.1991      2.00000
     91      -6.1569      2.00000
     92      -6.0267      2.00000
     93      -5.8793      2.00000
     94      -5.8285      2.00000
     95      -5.7750      2.00000
     96      -2.1452      2.00000
     97      -1.1328      2.00000
     98      -1.0111      2.00000
     99      -0.8206      2.00000
    100      -0.7474      2.00000
    101      -0.5221      2.00000
    102      -0.4633      2.00000
    103      -0.3897      2.00000
    104      -0.2709      2.00000
    105      -0.2149      2.00000
    106       0.2506      2.00000
    107       0.4052      2.00000
    108       0.5217      2.00000
    109       0.7839      2.00000
    110       1.1325      2.00000
    111       1.3360      2.00000
    112       1.4893      2.00000
    113       1.5589      2.00000
    114       1.7524      2.00000
    115       2.1381      2.00000
    116       2.2677      2.00000
    117       2.4238      2.00000
    118       2.5666      2.00000
    119       2.7447      2.00000
    120       2.8608      2.00000
    121       3.0726      2.00000
    122       3.1162      2.00000
    123       3.2229      2.00000
    124       3.3045      2.00000
    125       3.3902      2.00000
    126       3.4955      2.00000
    127       3.5836      2.00000
    128       3.6951      2.00000
    129       3.8494      2.00000
    130       3.9534      2.00000
    131       4.0987      2.00000
    132       4.1267      2.00000
    133       4.1815      2.00000
    134       4.2683      2.00000
    135       4.3537      2.00000
    136       4.5079      2.00000
    137       4.6804      2.00000
    138       4.8065      2.00000
    139       4.9115      1.99116
    140       5.0613      0.00000
    141       5.2338      0.00000
    142       7.4065      0.00000
    143       7.7502      0.00000
    144       8.1316      0.00000
    145       9.0827      0.00000
    146       9.9626      0.00000
    147      10.1722      0.00000
    148      10.5450      0.00000
    149      10.6905      0.00000
    150      10.7568      0.00000
    151      10.8910      0.00000
    152      11.1523      0.00000
    153      11.2157      0.00000
    154      11.2840      0.00000
    155      11.4772      0.00000
    156      11.7436      0.00000
    157      11.9558      0.00000
    158      12.2970      0.00000
    159      12.5204      0.00000
    160      12.6160      0.00000
    161      12.7487      0.00000
    162      13.0048      0.00000
    163      13.2175      0.00000
    164      13.3621      0.00000
    165      13.4380      0.00000
    166      13.5259      0.00000
    167      13.7018      0.00000
    168      13.8496      0.00000

 k-point     5 :       0.1250    0.3750    0.2500
  band No.  band energies     occupation 
      1     -10.2577      2.00000
      2     -10.0588      2.00000
      3      -9.8802      2.00000
      4      -9.8303      2.00000
      5      -9.7877      2.00000
      6      -9.7323      2.00000
      7      -9.7076      2.00000
      8      -9.6600      2.00000
      9      -9.6447      2.00000
     10      -9.6119      2.00000
     11      -9.5799      2.00000
     12      -9.5599      2.00000
     13      -9.5256      2.00000
     14      -9.4403      2.00000
     15      -9.3496      2.00000
     16      -8.7997      2.00000
     17      -8.6982      2.00000
     18      -8.6534      2.00000
     19      -8.6264      2.00000
     20      -8.5999      2.00000
     21      -8.5517      2.00000
     22      -8.5361      2.00000
     23      -8.5218      2.00000
     24      -8.4787      2.00000
     25      -8.4727      2.00000
     26      -8.4581      2.00000
     27      -8.4395      2.00000
     28      -8.4324      2.00000
     29      -8.4137      2.00000
     30      -8.3618      2.00000
     31      -8.3189      2.00000
     32      -8.3030      2.00000
     33      -8.2531      2.00000
     34      -8.2092      2.00000
     35      -8.1318      2.00000
     36      -7.8604      2.00000
     37      -7.8489      2.00000
     38      -7.8307      2.00000
     39      -7.8241      2.00000
     40      -7.8155      2.00000
     41      -7.8073      2.00000
     42      -7.7964      2.00000
     43      -7.7866      2.00000
     44      -7.7754      2.00000
     45      -7.7668      2.00000
     46      -7.7610      2.00000
     47      -7.7488      2.00000
     48      -7.7385      2.00000
     49      -7.7239      2.00000
     50      -7.7144      2.00000
     51      -7.7061      2.00000
     52      -7.6941      2.00000
     53      -7.6878      2.00000
     54      -7.6777      2.00000
     55      -7.6731      2.00000
     56      -7.6672      2.00000
     57      -7.6611      2.00000
     58      -7.6490      2.00000
     59      -7.6479      2.00000
     60      -7.6416      2.00000
     61      -7.6320      2.00000
     62      -7.6187      2.00000
     63      -7.6051      2.00000
     64      -7.5935      2.00000
     65      -7.5892      2.00000
     66      -7.5814      2.00000
     67      -7.5730      2.00000
     68      -7.5673      2.00000
     69      -7.5547      2.00000
     70      -7.5501      2.00000
     71      -7.5383      2.00000
     72      -7.5319      2.00000
     73      -7.5265      2.00000
     74      -7.5050      2.00000
     75      -7.4922      2.00000
     76      -7.4727      2.00000
     77      -7.4552      2.00000
     78      -7.4384      2.00000
     79      -7.4324      2.00000
     80      -7.4220      2.00000
     81      -7.4068      2.00000
     82      -7.3974      2.00000
     83      -7.2492      2.00000
     84      -7.0813      2.00000
     85      -6.9416      2.00000
     86      -6.6993      2.00000
     87      -6.5714      2.00000
     88      -6.4982      2.00000
     89      -6.3523      2.00000
     90      -6.2902      2.00000
     91      -6.2186      2.00000
     92      -6.1058      2.00000
     93      -6.0143      2.00000
     94      -5.9154      2.00000
     95      -5.8531      2.00000
     96      -2.3344      2.00000
     97      -1.1212      2.00000
     98      -0.9678      2.00000
     99      -0.8408      2.00000
    100      -0.8209      2.00000
    101      -0.7083      2.00000
    102      -0.6032      2.00000
    103      -0.3167      2.00000
    104      -0.2650      2.00000
    105       0.0474      2.00000
    106       0.2455      2.00000
    107       0.5794      2.00000
    108       0.8002      2.00000
    109       0.9431      2.00000
    110       1.3315      2.00000
    111       1.4083      2.00000
    112       1.6641      2.00000
    113       1.9912      2.00000
    114       2.3649      2.00000
    115       2.4858      2.00000
    116       2.6207      2.00000
    117       2.7004      2.00000
    118       2.7685      2.00000
    119       2.9338      2.00000
    120       2.9748      2.00000
    121       3.1418      2.00000
    122       3.2355      2.00000
    123       3.2775      2.00000
    124       3.3387      2.00000
    125       3.4665      2.00000
    126       3.5229      2.00000
    127       3.6064      2.00000
    128       3.8138      2.00000
    129       3.8346      2.00000
    130       3.9282      2.00000
    131       4.0203      2.00000
    132       4.0683      2.00000
    133       4.0964      2.00000
    134       4.1885      2.00000
    135       4.2561      2.00000
    136       4.3274      2.00000
    137       4.3854      2.00000
    138       4.5383      2.00000
    139       4.6392      2.00000
    140       4.8459      2.00000
    141       4.9255      1.47916
    142       7.0541      0.00000
    143       7.6806      0.00000
    144       8.4478      0.00000
    145       9.8313      0.00000
    146       9.9355      0.00000
    147      10.0606      0.00000
    148      10.3181      0.00000
    149      10.5278      0.00000
    150      10.7146      0.00000
    151      10.8318      0.00000
    152      10.9225      0.00000
    153      11.0313      0.00000
    154      11.1667      0.00000
    155      11.2347      0.00000
    156      11.4112      0.00000
    157      11.6497      0.00000
    158      11.7964      0.00000
    159      12.1227      0.00000
    160      12.4106      0.00000
    161      12.5834      0.00000
    162      12.6693      0.00000
    163      13.0413      0.00000
    164      13.1556      0.00000
    165      13.2502      0.00000
    166      13.4930      0.00000
    167      13.7541      0.00000
    168      13.8446      0.00000

 k-point     6 :       0.3750    0.3750    0.2500
  band No.  band energies     occupation 
      1     -10.1123      2.00000
      2      -9.9841      2.00000
      3      -9.9028      2.00000
      4      -9.8280      2.00000
      5      -9.7923      2.00000
      6      -9.7320      2.00000
      7      -9.6928      2.00000
      8      -9.6758      2.00000
      9      -9.6396      2.00000
     10      -9.6259      2.00000
     11      -9.5983      2.00000
     12      -9.5679      2.00000
     13      -9.5311      2.00000
     14      -9.4500      2.00000
     15      -9.3070      2.00000
     16      -8.7981      2.00000
     17      -8.6952      2.00000
     18      -8.6861      2.00000
     19      -8.6385      2.00000
     20      -8.6093      2.00000
     21      -8.5509      2.00000
     22      -8.5247      2.00000
     23      -8.5064      2.00000
     24      -8.4852      2.00000
     25      -8.4744      2.00000
     26      -8.4588      2.00000
     27      -8.4419      2.00000
     28      -8.4343      2.00000
     29      -8.4225      2.00000
     30      -8.4011      2.00000
     31      -8.3161      2.00000
     32      -8.3020      2.00000
     33      -8.2435      2.00000
     34      -8.2020      2.00000
     35      -8.0971      2.00000
     36      -7.8551      2.00000
     37      -7.8298      2.00000
     38      -7.8235      2.00000
     39      -7.8140      2.00000
     40      -7.8109      2.00000
     41      -7.7966      2.00000
     42      -7.7864      2.00000
     43      -7.7721      2.00000
     44      -7.7662      2.00000
     45      -7.7591      2.00000
     46      -7.7490      2.00000
     47      -7.7437      2.00000
     48      -7.7287      2.00000
     49      -7.7207      2.00000
     50      -7.7104      2.00000
     51      -7.7078      2.00000
     52      -7.6963      2.00000
     53      -7.6895      2.00000
     54      -7.6846      2.00000
     55      -7.6761      2.00000
     56      -7.6688      2.00000
     57      -7.6647      2.00000
     58      -7.6581      2.00000
     59      -7.6477      2.00000
     60      -7.6364      2.00000
     61      -7.6276      2.00000
     62      -7.6198      2.00000
     63      -7.6145      2.00000
     64      -7.6040      2.00000
     65      -7.5938      2.00000
     66      -7.5866      2.00000
     67      -7.5791      2.00000
     68      -7.5691      2.00000
     69      -7.5578      2.00000
     70      -7.5553      2.00000
     71      -7.5484      2.00000
     72      -7.5426      2.00000
     73      -7.5283      2.00000
     74      -7.5123      2.00000
     75      -7.4983      2.00000
     76      -7.4707      2.00000
     77      -7.4607      2.00000
     78      -7.4398      2.00000
     79      -7.4345      2.00000
     80      -7.4207      2.00000
     81      -7.4021      2.00000
     82      -7.3281      2.00000
     83      -7.2321      2.00000
     84      -7.0868      2.00000
     85      -7.0257      2.00000
     86      -6.8694      2.00000
     87      -6.7697      2.00000
     88      -6.6734      2.00000
     89      -6.5412      2.00000
     90      -6.4241      2.00000
     91      -6.2915      2.00000
     92      -6.1127      2.00000
     93      -5.9846      2.00000
     94      -5.8698      2.00000
     95      -5.7697      2.00000
     96      -2.4914      2.00000
     97      -0.6650      2.00000
     98      -0.5527      2.00000
     99      -0.4311      2.00000
    100      -0.3805      2.00000
    101      -0.2898      2.00000
    102      -0.1078      2.00000
    103       0.0197      2.00000
    104       0.1057      2.00000
    105       0.5012      2.00000
    106       0.5461      2.00000
    107       0.6619      2.00000
    108       0.7995      2.00000
    109       1.0728      2.00000
    110       1.3423      2.00000
    111       1.4690      2.00000
    112       1.5656      2.00000
    113       1.6472      2.00000
    114       1.8772      2.00000
    115       2.0938      2.00000
    116       2.1873      2.00000
    117       2.3310      2.00000
    118       2.4803      2.00000
    119       2.6839      2.00000
    120       2.7626      2.00000
    121       2.8425      2.00000
    122       2.9705      2.00000
    123       3.0613      2.00000
    124       3.1220      2.00000
    125       3.2852      2.00000
    126       3.4344      2.00000
    127       3.5015      2.00000
    128       3.6369      2.00000
    129       3.7068      2.00000
    130       3.7978      2.00000
    131       3.8736      2.00000
    132       3.9130      2.00000
    133       4.0722      2.00000
    134       4.1434      2.00000
    135       4.2147      2.00000
    136       4.2217      2.00000
    137       4.3495      2.00000
    138       4.4557      2.00000
    139       4.5525      2.00000
    140       4.6401      2.00000
    141       4.7265      2.00000
    142       7.0380      0.00000
    143       7.5759      0.00000
    144       7.8341      0.00000
    145      10.0990      0.00000
    146      10.3547      0.00000
    147      10.5886      0.00000
    148      10.7677      0.00000
    149      10.9619      0.00000
    150      11.1653      0.00000
    151      11.2681      0.00000
    152      11.3644      0.00000
    153      11.5415      0.00000
    154      11.6746      0.00000
    155      11.7403      0.00000
    156      11.8923      0.00000
    157      12.0255      0.00000
    158      12.1342      0.00000
    159      12.4446      0.00000
    160      12.5460      0.00000
    161      12.7151      0.00000
    162      12.8997      0.00000
    163      13.0765      0.00000
    164      13.2615      0.00000
    165      13.3004      0.00000
    166      13.4235      0.00000
    167      13.5871      0.00000
    168      13.8110      0.00000

 k-point     7 :      -0.3750    0.3750    0.2500
  band No.  band energies     occupation 
      1     -10.1127      2.00000
      2      -9.9714      2.00000
      3      -9.9126      2.00000
      4      -9.8349      2.00000
      5      -9.7907      2.00000
      6      -9.7335      2.00000
      7      -9.6974      2.00000
      8      -9.6625      2.00000
      9      -9.6438      2.00000
     10      -9.6244      2.00000
     11      -9.6001      2.00000
     12      -9.5647      2.00000
     13      -9.5365      2.00000
     14      -9.4487      2.00000
     15      -9.3067      2.00000
     16      -8.7970      2.00000
     17      -8.7036      2.00000
     18      -8.6824      2.00000
     19      -8.6361      2.00000
     20      -8.6071      2.00000
     21      -8.5515      2.00000
     22      -8.5300      2.00000
     23      -8.4993      2.00000
     24      -8.4834      2.00000
     25      -8.4655      2.00000
     26      -8.4622      2.00000
     27      -8.4456      2.00000
     28      -8.4360      2.00000
     29      -8.4334      2.00000
     30      -8.3939      2.00000
     31      -8.3162      2.00000
     32      -8.3018      2.00000
     33      -8.2436      2.00000
     34      -8.2022      2.00000
     35      -8.0963      2.00000
     36      -7.8571      2.00000
     37      -7.8326      2.00000
     38      -7.8189      2.00000
     39      -7.8138      2.00000
     40      -7.8062      2.00000
     41      -7.7976      2.00000
     42      -7.7873      2.00000
     43      -7.7723      2.00000
     44      -7.7653      2.00000
     45      -7.7565      2.00000
     46      -7.7484      2.00000
     47      -7.7439      2.00000
     48      -7.7385      2.00000
     49      -7.7225      2.00000
     50      -7.7116      2.00000
     51      -7.7052      2.00000
     52      -7.6990      2.00000
     53      -7.6912      2.00000
     54      -7.6836      2.00000
     55      -7.6774      2.00000
     56      -7.6694      2.00000
     57      -7.6631      2.00000
     58      -7.6501      2.00000
     59      -7.6418      2.00000
     60      -7.6352      2.00000
     61      -7.6242      2.00000
     62      -7.6197      2.00000
     63      -7.6131      2.00000
     64      -7.6031      2.00000
     65      -7.5995      2.00000
     66      -7.5898      2.00000
     67      -7.5832      2.00000
     68      -7.5771      2.00000
     69      -7.5648      2.00000
     70      -7.5566      2.00000
     71      -7.5439      2.00000
     72      -7.5382      2.00000
     73      -7.5286      2.00000
     74      -7.5128      2.00000
     75      -7.4959      2.00000
     76      -7.4712      2.00000
     77      -7.4569      2.00000
     78      -7.4385      2.00000
     79      -7.4329      2.00000
     80      -7.4184      2.00000
     81      -7.4020      2.00000
     82      -7.3476      2.00000
     83      -7.2180      2.00000
     84      -7.0663      2.00000
     85      -7.0244      2.00000
     86      -6.8766      2.00000
     87      -6.8018      2.00000
     88      -6.6548      2.00000
     89      -6.5351      2.00000
     90      -6.4271      2.00000
     91      -6.2801      2.00000
     92      -6.1456      2.00000
     93      -5.9662      2.00000
     94      -5.8774      2.00000
     95      -5.7616      2.00000
     96      -2.4923      2.00000
     97      -0.6726      2.00000
     98      -0.5875      2.00000
     99      -0.4069      2.00000
    100      -0.3667      2.00000
    101      -0.2393      2.00000
    102      -0.1186      2.00000
    103       0.0090      2.00000
    104       0.0773      2.00000
    105       0.4789      2.00000
    106       0.5535      2.00000
    107       0.6991      2.00000
    108       0.8483      2.00000
    109       1.0360      2.00000
    110       1.3142      2.00000
    111       1.4411      2.00000
    112       1.5664      2.00000
    113       1.6653      2.00000
    114       1.8680      2.00000
    115       2.1024      2.00000
    116       2.1845      2.00000
    117       2.3002      2.00000
    118       2.5149      2.00000
    119       2.6492      2.00000
    120       2.7730      2.00000
    121       2.8317      2.00000
    122       2.9817      2.00000
    123       3.0583      2.00000
    124       3.1355      2.00000
    125       3.2857      2.00000
    126       3.4249      2.00000
    127       3.5152      2.00000
    128       3.6429      2.00000
    129       3.6932      2.00000
    130       3.8222      2.00000
    131       3.8597      2.00000
    132       3.9730      2.00000
    133       4.0423      2.00000
    134       4.1192      2.00000
    135       4.1819      2.00000
    136       4.2651      2.00000
    137       4.3421      2.00000
    138       4.4564      2.00000
    139       4.5307      2.00000
    140       4.6520      2.00000
    141       4.7509      2.00000
    142       7.1079      0.00000
    143       7.5337      0.00000
    144       7.7891      0.00000
    145      10.1006      0.00000
    146      10.3107      0.00000
    147      10.5613      0.00000
    148      10.8295      0.00000
    149      10.9828      0.00000
    150      11.1164      0.00000
    151      11.1957      0.00000
    152      11.3625      0.00000
    153      11.4503      0.00000
    154      11.6227      0.00000
    155      11.8228      0.00000
    156      11.8967      0.00000
    157      12.0393      0.00000
    158      12.3031      0.00000
    159      12.4340      0.00000
    160      12.6548      0.00000
    161      12.8120      0.00000
    162      12.9430      0.00000
    163      13.0975      0.00000
    164      13.2860      0.00000
    165      13.3237      0.00000
    166      13.3804      0.00000
    167      13.5376      0.00000
    168      13.7086      0.00000

 k-point     8 :      -0.1250    0.3750    0.2500
  band No.  band energies     occupation 
      1     -10.2577      2.00000
      2     -10.0552      2.00000
      3      -9.8856      2.00000
      4      -9.8227      2.00000
      5      -9.7959      2.00000
      6      -9.7261      2.00000
      7      -9.7165      2.00000
      8      -9.6625      2.00000
      9      -9.6347      2.00000
     10      -9.6107      2.00000
     11      -9.5842      2.00000
     12      -9.5577      2.00000
     13      -9.5290      2.00000
     14      -9.4394      2.00000
     15      -9.3493      2.00000
     16      -8.7990      2.00000
     17      -8.6991      2.00000
     18      -8.6573      2.00000
     19      -8.6261      2.00000
     20      -8.5922      2.00000
     21      -8.5575      2.00000
     22      -8.5416      2.00000
     23      -8.5112      2.00000
     24      -8.4773      2.00000
     25      -8.4705      2.00000
     26      -8.4590      2.00000
     27      -8.4404      2.00000
     28      -8.4325      2.00000
     29      -8.4229      2.00000
     30      -8.3586      2.00000
     31      -8.3180      2.00000
     32      -8.3019      2.00000
     33      -8.2531      2.00000
     34      -8.2105      2.00000
     35      -8.1306      2.00000
     36      -7.8648      2.00000
     37      -7.8472      2.00000
     38      -7.8315      2.00000
     39      -7.8195      2.00000
     40      -7.8107      2.00000
     41      -7.8065      2.00000
     42      -7.7999      2.00000
     43      -7.7853      2.00000
     44      -7.7776      2.00000
     45      -7.7658      2.00000
     46      -7.7591      2.00000
     47      -7.7526      2.00000
     48      -7.7423      2.00000
     49      -7.7237      2.00000
     50      -7.7119      2.00000
     51      -7.7058      2.00000
     52      -7.7009      2.00000
     53      -7.6894      2.00000
     54      -7.6782      2.00000
     55      -7.6684      2.00000
     56      -7.6629      2.00000
     57      -7.6560      2.00000
     58      -7.6529      2.00000
     59      -7.6461      2.00000
     60      -7.6391      2.00000
     61      -7.6306      2.00000
     62      -7.6226      2.00000
     63      -7.6023      2.00000
     64      -7.5969      2.00000
     65      -7.5928      2.00000
     66      -7.5841      2.00000
     67      -7.5697      2.00000
     68      -7.5673      2.00000
     69      -7.5597      2.00000
     70      -7.5566      2.00000
     71      -7.5349      2.00000
     72      -7.5276      2.00000
     73      -7.5247      2.00000
     74      -7.5075      2.00000
     75      -7.4930      2.00000
     76      -7.4737      2.00000
     77      -7.4487      2.00000
     78      -7.4442      2.00000
     79      -7.4316      2.00000
     80      -7.4198      2.00000
     81      -7.4093      2.00000
     82      -7.3963      2.00000
     83      -7.2463      2.00000
     84      -7.0757      2.00000
     85      -6.9370      2.00000
     86      -6.7105      2.00000
     87      -6.5500      2.00000
     88      -6.5033      2.00000
     89      -6.3847      2.00000
     90      -6.2704      2.00000
     91      -6.2102      2.00000
     92      -6.1436      2.00000
     93      -5.9905      2.00000
     94      -5.9135      2.00000
     95      -5.8510      2.00000
     96      -2.3369      2.00000
     97      -1.1552      2.00000
     98      -0.9322      2.00000
     99      -0.8621      2.00000
    100      -0.8059      2.00000
    101      -0.6939      2.00000
    102      -0.5550      2.00000
    103      -0.3833      2.00000
    104      -0.2598      2.00000
    105       0.0708      2.00000
    106       0.2781      2.00000
    107       0.5125      2.00000
    108       0.8011      2.00000
    109       0.9588      2.00000
    110       1.3075      2.00000
    111       1.4357      2.00000
    112       1.6410      2.00000
    113       2.0030      2.00000
    114       2.3632      2.00000
    115       2.4862      2.00000
    116       2.6214      2.00000
    117       2.6895      2.00000
    118       2.7605      2.00000
    119       2.9304      2.00000
    120       3.0183      2.00000
    121       3.1409      2.00000
    122       3.2146      2.00000
    123       3.2733      2.00000
    124       3.3588      2.00000
    125       3.4679      2.00000
    126       3.5240      2.00000
    127       3.5865      2.00000
    128       3.7869      2.00000
    129       3.8387      2.00000
    130       3.9147      2.00000
    131       4.0053      2.00000
    132       4.0766      2.00000
    133       4.1301      2.00000
    134       4.1671      2.00000
    135       4.2790      2.00000
    136       4.3380      2.00000
    137       4.4247      2.00000
    138       4.5036      2.00000
    139       4.6346      2.00000
    140       4.8607      2.00000
    141       4.9325      0.72255
    142       7.0887      0.00000
    143       7.6849      0.00000
    144       8.3581      0.00000
    145       9.8182      0.00000
    146       9.9103      0.00000
    147      10.1104      0.00000
    148      10.3990      0.00000
    149      10.5376      0.00000
    150      10.6836      0.00000
    151      10.7851      0.00000
    152      10.8592      0.00000
    153      10.9915      0.00000
    154      11.1422      0.00000
    155      11.2993      0.00000
    156      11.4892      0.00000
    157      11.5955      0.00000
    158      11.8108      0.00000
    159      12.0929      0.00000
    160      12.4680      0.00000
    161      12.5883      0.00000
    162      12.7930      0.00000
    163      12.9946      0.00000
    164      13.1416      0.00000
    165      13.3315      0.00000
    166      13.4895      0.00000
    167      13.7539      0.00000
    168      13.8529      0.00000

 k-point     9 :       0.1250   -0.3750    0.2500
  band No.  band energies     occupation 
      1     -10.2618      2.00000
      2     -10.0236      2.00000
      3      -9.9361      2.00000
      4      -9.8297      2.00000
      5      -9.7657      2.00000
      6      -9.7260      2.00000
      7      -9.6961      2.00000
      8      -9.6787      2.00000
      9      -9.6498      2.00000
     10      -9.5981      2.00000
     11      -9.5840      2.00000
     12      -9.5594      2.00000
     13      -9.5289      2.00000
     14      -9.4395      2.00000
     15      -9.3497      2.00000
     16      -8.7989      2.00000
     17      -8.6991      2.00000
     18      -8.6569      2.00000
     19      -8.6260      2.00000
     20      -8.5927      2.00000
     21      -8.5576      2.00000
     22      -8.5419      2.00000
     23      -8.5115      2.00000
     24      -8.4777      2.00000
     25      -8.4705      2.00000
     26      -8.4588      2.00000
     27      -8.4402      2.00000
     28      -8.4320      2.00000
     29      -8.4232      2.00000
     30      -8.3573      2.00000
     31      -8.3191      2.00000
     32      -8.3018      2.00000
     33      -8.2535      2.00000
     34      -8.2101      2.00000
     35      -8.1304      2.00000
     36      -7.8646      2.00000
     37      -7.8471      2.00000
     38      -7.8319      2.00000
     39      -7.8195      2.00000
     40      -7.8134      2.00000
     41      -7.8079      2.00000
     42      -7.7993      2.00000
     43      -7.7828      2.00000
     44      -7.7754      2.00000
     45      -7.7675      2.00000
     46      -7.7586      2.00000
     47      -7.7539      2.00000
     48      -7.7394      2.00000
     49      -7.7249      2.00000
     50      -7.7150      2.00000
     51      -7.7099      2.00000
     52      -7.6989      2.00000
     53      -7.6840      2.00000
     54      -7.6779      2.00000
     55      -7.6708      2.00000
     56      -7.6650      2.00000
     57      -7.6566      2.00000
     58      -7.6544      2.00000
     59      -7.6459      2.00000
     60      -7.6364      2.00000
     61      -7.6290      2.00000
     62      -7.6200      2.00000
     63      -7.6062      2.00000
     64      -7.5980      2.00000
     65      -7.5925      2.00000
     66      -7.5808      2.00000
     67      -7.5730      2.00000
     68      -7.5653      2.00000
     69      -7.5623      2.00000
     70      -7.5518      2.00000
     71      -7.5398      2.00000
     72      -7.5306      2.00000
     73      -7.5222      2.00000
     74      -7.5146      2.00000
     75      -7.4852      2.00000
     76      -7.4632      2.00000
     77      -7.4489      2.00000
     78      -7.4435      2.00000
     79      -7.4280      2.00000
     80      -7.4190      2.00000
     81      -7.4121      2.00000
     82      -7.3837      2.00000
     83      -7.2743      2.00000
     84      -7.0995      2.00000
     85      -6.8768      2.00000
     86      -6.7100      2.00000
     87      -6.5860      2.00000
     88      -6.4919      2.00000
     89      -6.4189      2.00000
     90      -6.2942      2.00000
     91      -6.1904      2.00000
     92      -6.1005      2.00000
     93      -5.9888      2.00000
     94      -5.9170      2.00000
     95      -5.8599      2.00000
     96      -2.3406      2.00000
     97      -1.1538      2.00000
     98      -0.9469      2.00000
     99      -0.8525      2.00000
    100      -0.7714      2.00000
    101      -0.6648      2.00000
    102      -0.5915      2.00000
    103      -0.3365      2.00000
    104      -0.3182      2.00000
    105       0.0802      2.00000
    106       0.2787      2.00000
    107       0.5110      2.00000
    108       0.7303      2.00000
    109       0.9211      2.00000
    110       1.3221      2.00000
    111       1.4698      2.00000
    112       1.6339      2.00000
    113       2.1159      2.00000
    114       2.4293      2.00000
    115       2.5102      2.00000
    116       2.5893      2.00000
    117       2.6290      2.00000
    118       2.7914      2.00000
    119       2.8620      2.00000
    120       2.9838      2.00000
    121       3.1525      2.00000
    122       3.1960      2.00000
    123       3.2466      2.00000
    124       3.3331      2.00000
    125       3.4733      2.00000
    126       3.5939      2.00000
    127       3.6458      2.00000
    128       3.7046      2.00000
    129       3.8462      2.00000
    130       3.9249      2.00000
    131       3.9777      2.00000
    132       4.0703      2.00000
    133       4.1355      2.00000
    134       4.2372      2.00000
    135       4.2835      2.00000
    136       4.3499      2.00000
    137       4.3977      2.00000
    138       4.5013      2.00000
    139       4.6305      2.00000
    140       4.8220      2.00000
    141       4.9330      0.67752
    142       7.1140      0.00000
    143       7.6767      0.00000
    144       8.3541      0.00000
    145       9.7733      0.00000
    146       9.9477      0.00000
    147      10.0868      0.00000
    148      10.3643      0.00000
    149      10.5461      0.00000
    150      10.7166      0.00000
    151      10.7615      0.00000
    152      10.9472      0.00000
    153      10.9982      0.00000
    154      11.1448      0.00000
    155      11.3371      0.00000
    156      11.4125      0.00000
    157      11.7020      0.00000
    158      11.7968      0.00000
    159      12.0742      0.00000
    160      12.3880      0.00000
    161      12.5081      0.00000
    162      12.8027      0.00000
    163      13.0297      0.00000
    164      13.2297      0.00000
    165      13.3231      0.00000
    166      13.4810      0.00000
    167      13.6521      0.00000
    168      13.8094      0.00000

 k-point    10 :       0.3750   -0.3750    0.2500
  band No.  band energies     occupation 
      1     -10.1161      2.00000
      2      -9.9608      2.00000
      3      -9.9050      2.00000
      4      -9.8529      2.00000
      5      -9.7868      2.00000
      6      -9.7478      2.00000
      7      -9.6865      2.00000
      8      -9.6625      2.00000
      9      -9.6508      2.00000
     10      -9.6132      2.00000
     11      -9.5970      2.00000
     12      -9.5689      2.00000
     13      -9.5368      2.00000
     14      -9.4488      2.00000
     15      -9.3070      2.00000
     16      -8.7970      2.00000
     17      -8.7035      2.00000
     18      -8.6822      2.00000
     19      -8.6360      2.00000
     20      -8.6076      2.00000
     21      -8.5520      2.00000
     22      -8.5300      2.00000
     23      -8.4992      2.00000
     24      -8.4837      2.00000
     25      -8.4659      2.00000
     26      -8.4625      2.00000
     27      -8.4461      2.00000
     28      -8.4360      2.00000
     29      -8.4322      2.00000
     30      -8.3935      2.00000
     31      -8.3161      2.00000
     32      -8.3016      2.00000
     33      -8.2438      2.00000
     34      -8.2020      2.00000
     35      -8.0963      2.00000
     36      -7.8576      2.00000
     37      -7.8332      2.00000
     38      -7.8175      2.00000
     39      -7.8145      2.00000
     40      -7.8077      2.00000
     41      -7.7969      2.00000
     42      -7.7869      2.00000
     43      -7.7698      2.00000
     44      -7.7660      2.00000
     45      -7.7589      2.00000
     46      -7.7488      2.00000
     47      -7.7442      2.00000
     48      -7.7372      2.00000
     49      -7.7247      2.00000
     50      -7.7111      2.00000
     51      -7.7032      2.00000
     52      -7.6979      2.00000
     53      -7.6897      2.00000
     54      -7.6847      2.00000
     55      -7.6765      2.00000
     56      -7.6684      2.00000
     57      -7.6634      2.00000
     58      -7.6493      2.00000
     59      -7.6445      2.00000
     60      -7.6339      2.00000
     61      -7.6311      2.00000
     62      -7.6192      2.00000
     63      -7.6109      2.00000
     64      -7.6042      2.00000
     65      -7.5998      2.00000
     66      -7.5897      2.00000
     67      -7.5793      2.00000
     68      -7.5727      2.00000
     69      -7.5645      2.00000
     70      -7.5587      2.00000
     71      -7.5458      2.00000
     72      -7.5425      2.00000
     73      -7.5291      2.00000
     74      -7.5169      2.00000
     75      -7.4886      2.00000
     76      -7.4755      2.00000
     77      -7.4587      2.00000
     78      -7.4456      2.00000
     79      -7.4373      2.00000
     80      -7.4152      2.00000
     81      -7.4025      2.00000
     82      -7.3110      2.00000
     83      -7.2170      2.00000
     84      -7.1142      2.00000
     85      -7.0066      2.00000
     86      -6.8792      2.00000
     87      -6.7549      2.00000
     88      -6.6667      2.00000
     89      -6.5860      2.00000
     90      -6.4009      2.00000
     91      -6.3030      2.00000
     92      -6.1063      2.00000
     93      -5.9869      2.00000
     94      -5.8810      2.00000
     95      -5.7527      2.00000
     96      -2.4970      2.00000
     97      -0.6837      2.00000
     98      -0.5354      2.00000
     99      -0.3758      2.00000
    100      -0.3425      2.00000
    101      -0.2506      2.00000
    102      -0.1274      2.00000
    103      -0.0943      2.00000
    104       0.0783      2.00000
    105       0.5070      2.00000
    106       0.5889      2.00000
    107       0.6723      2.00000
    108       0.8289      2.00000
    109       0.9755      2.00000
    110       1.3169      2.00000
    111       1.4281      2.00000
    112       1.6059      2.00000
    113       1.7404      2.00000
    114       1.8612      2.00000
    115       2.1293      2.00000
    116       2.2111      2.00000
    117       2.3199      2.00000
    118       2.4423      2.00000
    119       2.6505      2.00000
    120       2.7391      2.00000
    121       2.8697      2.00000
    122       2.9319      2.00000
    123       3.0189      2.00000
    124       3.1714      2.00000
    125       3.2875      2.00000
    126       3.4114      2.00000
    127       3.5038      2.00000
    128       3.6294      2.00000
    129       3.7351      2.00000
    130       3.8360      2.00000
    131       3.8972      2.00000
    132       3.9978      2.00000
    133       4.0421      2.00000
    134       4.1380      2.00000
    135       4.1701      2.00000
    136       4.2778      2.00000
    137       4.3259      2.00000
    138       4.3931      2.00000
    139       4.5176      2.00000
    140       4.6543      2.00000
    141       4.7604      2.00000
    142       7.1114      0.00000
    143       7.4820      0.00000
    144       7.8397      0.00000
    145      10.1081      0.00000
    146      10.3048      0.00000
    147      10.6129      0.00000
    148      10.7637      0.00000
    149      10.9414      0.00000
    150      11.1018      0.00000
    151      11.2481      0.00000
    152      11.3282      0.00000
    153      11.5774      0.00000
    154      11.6515      0.00000
    155      11.7035      0.00000
    156      11.9099      0.00000
    157      12.1284      0.00000
    158      12.2053      0.00000
    159      12.5046      0.00000
    160      12.6571      0.00000
    161      12.8140      0.00000
    162      12.9610      0.00000
    163      13.1043      0.00000
    164      13.1664      0.00000
    165      13.3005      0.00000
    166      13.4216      0.00000
    167      13.4547      0.00000
    168      13.7101      0.00000

 k-point    11 :      -0.3750   -0.3750    0.2500
  band No.  band energies     occupation 
      1     -10.1203      2.00000
      2      -9.9643      2.00000
      3      -9.8831      2.00000
      4      -9.8550      2.00000
      5      -9.8004      2.00000
      6      -9.7500      2.00000
      7      -9.6891      2.00000
      8      -9.6689      2.00000
      9      -9.6301      2.00000
     10      -9.6171      2.00000
     11      -9.6006      2.00000
     12      -9.5713      2.00000
     13      -9.5328      2.00000
     14      -9.4497      2.00000
     15      -9.3073      2.00000
     16      -8.7981      2.00000
     17      -8.6951      2.00000
     18      -8.6859      2.00000
     19      -8.6383      2.00000
     20      -8.6098      2.00000
     21      -8.5515      2.00000
     22      -8.5245      2.00000
     23      -8.5058      2.00000
     24      -8.4853      2.00000
     25      -8.4749      2.00000
     26      -8.4587      2.00000
     27      -8.4427      2.00000
     28      -8.4344      2.00000
     29      -8.4220      2.00000
     30      -8.4011      2.00000
     31      -8.3157      2.00000
     32      -8.3017      2.00000
     33      -8.2432      2.00000
     34      -8.2024      2.00000
     35      -8.0974      2.00000
     36      -7.8556      2.00000
     37      -7.8305      2.00000
     38      -7.8224      2.00000
     39      -7.8159      2.00000
     40      -7.8109      2.00000
     41      -7.7954      2.00000
     42      -7.7850      2.00000
     43      -7.7699      2.00000
     44      -7.7687      2.00000
     45      -7.7599      2.00000
     46      -7.7498      2.00000
     47      -7.7453      2.00000
     48      -7.7293      2.00000
     49      -7.7193      2.00000
     50      -7.7076      2.00000
     51      -7.7056      2.00000
     52      -7.6991      2.00000
     53      -7.6916      2.00000
     54      -7.6804      2.00000
     55      -7.6758      2.00000
     56      -7.6700      2.00000
     57      -7.6640      2.00000
     58      -7.6573      2.00000
     59      -7.6485      2.00000
     60      -7.6364      2.00000
     61      -7.6258      2.00000
     62      -7.6162      2.00000
     63      -7.6136      2.00000
     64      -7.6037      2.00000
     65      -7.5969      2.00000
     66      -7.5885      2.00000
     67      -7.5800      2.00000
     68      -7.5724      2.00000
     69      -7.5613      2.00000
     70      -7.5575      2.00000
     71      -7.5464      2.00000
     72      -7.5390      2.00000
     73      -7.5210      2.00000
     74      -7.5101      2.00000
     75      -7.4967      2.00000
     76      -7.4731      2.00000
     77      -7.4624      2.00000
     78      -7.4499      2.00000
     79      -7.4357      2.00000
     80      -7.4168      2.00000
     81      -7.4015      2.00000
     82      -7.3288      2.00000
     83      -7.2139      2.00000
     84      -7.1325      2.00000
     85      -6.9949      2.00000
     86      -6.8764      2.00000
     87      -6.7701      2.00000
     88      -6.6485      2.00000
     89      -6.5741      2.00000
     90      -6.4089      2.00000
     91      -6.2542      2.00000
     92      -6.1650      2.00000
     93      -5.9845      2.00000
     94      -5.8716      2.00000
     95      -5.7541      2.00000
     96      -2.4995      2.00000
     97      -0.6118      2.00000
     98      -0.5548      2.00000
     99      -0.4382      2.00000
    100      -0.3793      2.00000
    101      -0.2686      2.00000
    102      -0.1263      2.00000
    103      -0.0463      2.00000
    104       0.1081      2.00000
    105       0.5390      2.00000
    106       0.5805      2.00000
    107       0.6466      2.00000
    108       0.7816      2.00000
    109       1.0307      2.00000
    110       1.3370      2.00000
    111       1.4192      2.00000
    112       1.6057      2.00000
    113       1.6922      2.00000
    114       1.8516      2.00000
    115       2.1232      2.00000
    116       2.2127      2.00000
    117       2.3264      2.00000
    118       2.4820      2.00000
    119       2.6525      2.00000
    120       2.7328      2.00000
    121       2.8857      2.00000
    122       2.9465      2.00000
    123       3.0228      2.00000
    124       3.1639      2.00000
    125       3.2879      2.00000
    126       3.4203      2.00000
    127       3.5137      2.00000
    128       3.5807      2.00000
    129       3.7109      2.00000
    130       3.8193      2.00000
    131       3.9052      2.00000
    132       4.0030      2.00000
    133       4.0301      2.00000
    134       4.1296      2.00000
    135       4.2083      2.00000
    136       4.2704      2.00000
    137       4.3055      2.00000
    138       4.4353      2.00000
    139       4.5177      2.00000
    140       4.6507      2.00000
    141       4.7556      2.00000
    142       7.0318      0.00000
    143       7.5512      0.00000
    144       7.8337      0.00000
    145      10.1713      0.00000
    146      10.3259      0.00000
    147      10.5838      0.00000
    148      10.8011      0.00000
    149      11.0177      0.00000
    150      11.1275      0.00000
    151      11.2184      0.00000
    152      11.3254      0.00000
    153      11.5247      0.00000
    154      11.5932      0.00000
    155      11.7399      0.00000
    156      11.8662      0.00000
    157      12.0865      0.00000
    158      12.2836      0.00000
    159      12.4188      0.00000
    160      12.5956      0.00000
    161      12.7339      0.00000
    162      12.9290      0.00000
    163      13.0604      0.00000
    164      13.1935      0.00000
    165      13.2783      0.00000
    166      13.4476      0.00000
    167      13.5524      0.00000
    168      13.7008      0.00000

 k-point    12 :      -0.1250   -0.3750    0.2500
  band No.  band energies     occupation 
      1     -10.2633      2.00000
      2     -10.0227      2.00000
      3      -9.9389      2.00000
      4      -9.8120      2.00000
      5      -9.7772      2.00000
      6      -9.7341      2.00000
      7      -9.6983      2.00000
      8      -9.6812      2.00000
      9      -9.6338      2.00000
     10      -9.6062      2.00000
     11      -9.5804      2.00000
     12      -9.5628      2.00000
     13      -9.5258      2.00000
     14      -9.4402      2.00000
     15      -9.3499      2.00000
     16      -8.7997      2.00000
     17      -8.6983      2.00000
     18      -8.6530      2.00000
     19      -8.6261      2.00000
     20      -8.6006      2.00000
     21      -8.5521      2.00000
     22      -8.5359      2.00000
     23      -8.5215      2.00000
     24      -8.4790      2.00000
     25      -8.4727      2.00000
     26      -8.4579      2.00000
     27      -8.4395      2.00000
     28      -8.4319      2.00000
     29      -8.4143      2.00000
     30      -8.3626      2.00000
     31      -8.3180      2.00000
     32      -8.3028      2.00000
     33      -8.2533      2.00000
     34      -8.2092      2.00000
     35      -8.1319      2.00000
     36      -7.8606      2.00000
     37      -7.8478      2.00000
     38      -7.8304      2.00000
     39      -7.8261      2.00000
     40      -7.8165      2.00000
     41      -7.8082      2.00000
     42      -7.7964      2.00000
     43      -7.7855      2.00000
     44      -7.7748      2.00000
     45      -7.7662      2.00000
     46      -7.7610      2.00000
     47      -7.7512      2.00000
     48      -7.7378      2.00000
     49      -7.7245      2.00000
     50      -7.7129      2.00000
     51      -7.7038      2.00000
     52      -7.6960      2.00000
     53      -7.6900      2.00000
     54      -7.6780      2.00000
     55      -7.6716      2.00000
     56      -7.6668      2.00000
     57      -7.6581      2.00000
     58      -7.6523      2.00000
     59      -7.6452      2.00000
     60      -7.6412      2.00000
     61      -7.6257      2.00000
     62      -7.6220      2.00000
     63      -7.6035      2.00000
     64      -7.5969      2.00000
     65      -7.5912      2.00000
     66      -7.5791      2.00000
     67      -7.5746      2.00000
     68      -7.5672      2.00000
     69      -7.5550      2.00000
     70      -7.5491      2.00000
     71      -7.5373      2.00000
     72      -7.5300      2.00000
     73      -7.5260      2.00000
     74      -7.5095      2.00000
     75      -7.4882      2.00000
     76      -7.4668      2.00000
     77      -7.4570      2.00000
     78      -7.4405      2.00000
     79      -7.4342      2.00000
     80      -7.4173      2.00000
     81      -7.4096      2.00000
     82      -7.3879      2.00000
     83      -7.2744      2.00000
     84      -7.1032      2.00000
     85      -6.8732      2.00000
     86      -6.7450      2.00000
     87      -6.5790      2.00000
     88      -6.4723      2.00000
     89      -6.3875      2.00000
     90      -6.2604      2.00000
     91      -6.2100      2.00000
     92      -6.1232      2.00000
     93      -6.0172      2.00000
     94      -5.9056      2.00000
     95      -5.8560      2.00000
     96      -2.3418      2.00000
     97      -1.1130      2.00000
     98      -0.9908      2.00000
     99      -0.8497      2.00000
    100      -0.7876      2.00000
    101      -0.6632      2.00000
    102      -0.6202      2.00000
    103      -0.3300      2.00000
    104      -0.2693      2.00000
    105       0.0804      2.00000
    106       0.2781      2.00000
    107       0.5112      2.00000
    108       0.7273      2.00000
    109       0.9268      2.00000
    110       1.3230      2.00000
    111       1.4590      2.00000
    112       1.6372      2.00000
    113       2.0919      2.00000
    114       2.4236      2.00000
    115       2.5105      2.00000
    116       2.6073      2.00000
    117       2.6370      2.00000
    118       2.7493      2.00000
    119       2.8908      2.00000
    120       2.9906      2.00000
    121       3.1364      2.00000
    122       3.2033      2.00000
    123       3.3189      2.00000
    124       3.3494      2.00000
    125       3.4797      2.00000
    126       3.5481      2.00000
    127       3.5912      2.00000
    128       3.7235      2.00000
    129       3.8115      2.00000
    130       3.9623      2.00000
    131       3.9951      2.00000
    132       4.0769      2.00000
    133       4.1624      2.00000
    134       4.1977      2.00000
    135       4.2470      2.00000
    136       4.3427      2.00000
    137       4.4156      2.00000
    138       4.5092      2.00000
    139       4.6343      2.00000
    140       4.8175      2.00000
    141       4.9377      0.27573
    142       7.0643      0.00000
    143       7.6680      0.00000
    144       8.4228      0.00000
    145       9.8314      0.00000
    146       9.9160      0.00000
    147      10.1064      0.00000
    148      10.3891      0.00000
    149      10.5650      0.00000
    150      10.6634      0.00000
    151      10.7871      0.00000
    152      10.9100      0.00000
    153      11.0358      0.00000
    154      11.1244      0.00000
    155      11.2488      0.00000
    156      11.4044      0.00000
    157      11.7150      0.00000
    158      11.8576      0.00000
    159      12.0405      0.00000
    160      12.4010      0.00000
    161      12.4468      0.00000
    162      12.8276      0.00000
    163      13.0517      0.00000
    164      13.2109      0.00000
    165      13.2764      0.00000
    166      13.4396      0.00000
    167      13.6374      0.00000
    168      13.8339      0.00000

 k-point    13 :       0.1250   -0.1250    0.2500
  band No.  band energies     occupation 
      1     -10.5079      2.00000
      2     -10.1874      2.00000
      3      -9.9054      2.00000
      4      -9.8113      2.00000
      5      -9.7732      2.00000
      6      -9.7216      2.00000
      7      -9.6824      2.00000
      8      -9.6358      2.00000
      9      -9.6197      2.00000
     10      -9.5857      2.00000
     11      -9.5586      2.00000
     12      -9.5487      2.00000
     13      -9.5228      2.00000
     14      -9.4330      2.00000
     15      -9.3591      2.00000
     16      -8.7779      2.00000
     17      -8.6937      2.00000
     18      -8.6817      2.00000
     19      -8.6555      2.00000
     20      -8.6154      2.00000
     21      -8.5678      2.00000
     22      -8.5495      2.00000
     23      -8.5201      2.00000
     24      -8.4820      2.00000
     25      -8.4736      2.00000
     26      -8.4657      2.00000
     27      -8.4463      2.00000
     28      -8.4313      2.00000
     29      -8.3859      2.00000
     30      -8.3503      2.00000
     31      -8.3289      2.00000
     32      -8.3086      2.00000
     33      -8.2616      2.00000
     34      -8.2337      2.00000
     35      -8.0932      2.00000
     36      -7.8924      2.00000
     37      -7.8863      2.00000
     38      -7.8444      2.00000
     39      -7.8350      2.00000
     40      -7.8261      2.00000
     41      -7.8163      2.00000
     42      -7.8116      2.00000
     43      -7.7948      2.00000
     44      -7.7831      2.00000
     45      -7.7690      2.00000
     46      -7.7662      2.00000
     47      -7.7609      2.00000
     48      -7.7434      2.00000
     49      -7.7376      2.00000
     50      -7.7167      2.00000
     51      -7.7086      2.00000
     52      -7.6991      2.00000
     53      -7.6875      2.00000
     54      -7.6818      2.00000
     55      -7.6746      2.00000
     56      -7.6604      2.00000
     57      -7.6570      2.00000
     58      -7.6465      2.00000
     59      -7.6416      2.00000
     60      -7.6324      2.00000
     61      -7.6260      2.00000
     62      -7.6175      2.00000
     63      -7.6058      2.00000
     64      -7.5990      2.00000
     65      -7.5944      2.00000
     66      -7.5918      2.00000
     67      -7.5741      2.00000
     68      -7.5708      2.00000
     69      -7.5628      2.00000
     70      -7.5519      2.00000
     71      -7.5470      2.00000
     72      -7.5357      2.00000
     73      -7.5236      2.00000
     74      -7.5155      2.00000
     75      -7.4967      2.00000
     76      -7.4875      2.00000
     77      -7.4608      2.00000
     78      -7.4480      2.00000
     79      -7.4365      2.00000
     80      -7.4331      2.00000
     81      -7.4128      2.00000
     82      -7.3928      2.00000
     83      -7.2190      2.00000
     84      -6.9211      2.00000
     85      -6.7115      2.00000
     86      -6.6117      2.00000
     87      -6.4946      2.00000
     88      -6.3810      2.00000
     89      -6.2835      2.00000
     90      -6.2035      2.00000
     91      -6.1656      2.00000
     92      -5.9959      2.00000
     93      -5.8953      2.00000
     94      -5.8319      2.00000
     95      -5.7692      2.00000
     96      -2.1620      2.00000
     97      -1.0717      2.00000
     98      -1.0009      2.00000
     99      -0.8579      2.00000
    100      -0.7601      2.00000
    101      -0.5095      2.00000
    102      -0.4162      2.00000
    103      -0.3535      2.00000
    104      -0.2952      2.00000
    105      -0.2461      2.00000
    106       0.2032      2.00000
    107       0.4133      2.00000
    108       0.4773      2.00000
    109       0.7283      2.00000
    110       1.1355      2.00000
    111       1.3809      2.00000
    112       1.5230      2.00000
    113       1.5721      2.00000
    114       1.7653      2.00000
    115       2.1308      2.00000
    116       2.2476      2.00000
    117       2.4054      2.00000
    118       2.6490      2.00000
    119       2.7416      2.00000
    120       2.8561      2.00000
    121       3.0242      2.00000
    122       3.1815      2.00000
    123       3.2161      2.00000
    124       3.3100      2.00000
    125       3.3456      2.00000
    126       3.5030      2.00000
    127       3.6150      2.00000
    128       3.6986      2.00000
    129       3.8565      2.00000
    130       3.9453      2.00000
    131       4.0304      2.00000
    132       4.1471      2.00000
    133       4.1830      2.00000
    134       4.2620      2.00000
    135       4.3762      2.00000
    136       4.5193      2.00000
    137       4.6673      2.00000
    138       4.7593      2.00000
    139       4.9012      1.99995
    140       5.0729      0.00000
    141       5.2352      0.00000
    142       7.5021      0.00000
    143       7.6614      0.00000
    144       8.1490      0.00000
    145       9.0672      0.00000
    146       9.9307      0.00000
    147      10.1809      0.00000
    148      10.5541      0.00000
    149      10.6805      0.00000
    150      10.7934      0.00000
    151      10.9399      0.00000
    152      11.1733      0.00000
    153      11.2418      0.00000
    154      11.2987      0.00000
    155      11.4517      0.00000
    156      11.7917      0.00000
    157      11.9496      0.00000
    158      12.1826      0.00000
    159      12.4807      0.00000
    160      12.5384      0.00000
    161      12.7826      0.00000
    162      13.0327      0.00000
    163      13.1726      0.00000
    164      13.3082      0.00000
    165      13.4764      0.00000
    166      13.5766      0.00000
    167      13.8214      0.00000
    168      13.9239      0.00000

 k-point    14 :       0.3750   -0.1250    0.2500
  band No.  band energies     occupation 
      1     -10.3114      2.00000
      2     -10.0611      2.00000
      3     -10.0137      2.00000
      4      -9.8327      2.00000
      5      -9.8085      2.00000
      6      -9.7502      2.00000
      7      -9.6786      2.00000
      8      -9.6356      2.00000
      9      -9.6185      2.00000
     10      -9.5890      2.00000
     11      -9.5750      2.00000
     12      -9.5474      2.00000
     13      -9.5151      2.00000
     14      -9.4402      2.00000
     15      -9.3160      2.00000
     16      -8.7822      2.00000
     17      -8.6999      2.00000
     18      -8.6732      2.00000
     19      -8.6523      2.00000
     20      -8.6168      2.00000
     21      -8.5889      2.00000
     22      -8.5488      2.00000
     23      -8.5217      2.00000
     24      -8.4917      2.00000
     25      -8.4775      2.00000
     26      -8.4693      2.00000
     27      -8.4509      2.00000
     28      -8.4403      2.00000
     29      -8.4276      2.00000
     30      -8.3533      2.00000
     31      -8.3295      2.00000
     32      -8.3090      2.00000
     33      -8.2563      2.00000
     34      -8.2107      2.00000
     35      -8.0751      2.00000
     36      -7.8666      2.00000
     37      -7.8626      2.00000
     38      -7.8387      2.00000
     39      -7.8271      2.00000
     40      -7.8188      2.00000
     41      -7.8100      2.00000
     42      -7.7948      2.00000
     43      -7.7800      2.00000
     44      -7.7719      2.00000
     45      -7.7614      2.00000
     46      -7.7536      2.00000
     47      -7.7407      2.00000
     48      -7.7320      2.00000
     49      -7.7297      2.00000
     50      -7.7192      2.00000
     51      -7.7090      2.00000
     52      -7.7057      2.00000
     53      -7.6956      2.00000
     54      -7.6888      2.00000
     55      -7.6754      2.00000
     56      -7.6685      2.00000
     57      -7.6574      2.00000
     58      -7.6504      2.00000
     59      -7.6411      2.00000
     60      -7.6364      2.00000
     61      -7.6273      2.00000
     62      -7.6189      2.00000
     63      -7.6162      2.00000
     64      -7.6105      2.00000
     65      -7.6017      2.00000
     66      -7.5976      2.00000
     67      -7.5881      2.00000
     68      -7.5795      2.00000
     69      -7.5714      2.00000
     70      -7.5606      2.00000
     71      -7.5577      2.00000
     72      -7.5520      2.00000
     73      -7.5309      2.00000
     74      -7.5196      2.00000
     75      -7.5047      2.00000
     76      -7.4928      2.00000
     77      -7.4796      2.00000
     78      -7.4606      2.00000
     79      -7.4493      2.00000
     80      -7.4287      2.00000
     81      -7.4148      2.00000
     82      -7.3945      2.00000
     83      -7.3775      2.00000
     84      -7.2299      2.00000
     85      -6.9750      2.00000
     86      -6.6808      2.00000
     87      -6.4448      2.00000
     88      -6.2987      2.00000
     89      -6.2307      2.00000
     90      -6.1000      2.00000
     91      -6.0528      2.00000
     92      -6.0408      2.00000
     93      -5.9053      2.00000
     94      -5.8274      2.00000
     95      -5.7424      2.00000
     96      -2.1709      2.00000
     97      -0.8383      2.00000
     98      -0.7780      2.00000
     99      -0.6385      2.00000
    100      -0.5396      2.00000
    101      -0.4230      2.00000
    102      -0.3310      2.00000
    103      -0.2599      2.00000
    104      -0.0851      2.00000
    105       0.1347      2.00000
    106       0.3873      2.00000
    107       0.4979      2.00000
    108       0.8046      2.00000
    109       0.9966      2.00000
    110       1.1315      2.00000
    111       1.3485      2.00000
    112       1.4705      2.00000
    113       1.6789      2.00000
    114       1.8677      2.00000
    115       1.9725      2.00000
    116       2.1501      2.00000
    117       2.3519      2.00000
    118       2.4219      2.00000
    119       2.6230      2.00000
    120       2.7245      2.00000
    121       2.7893      2.00000
    122       2.9397      2.00000
    123       3.0957      2.00000
    124       3.2172      2.00000
    125       3.3075      2.00000
    126       3.3503      2.00000
    127       3.4319      2.00000
    128       3.5025      2.00000
    129       3.6362      2.00000
    130       3.8007      2.00000
    131       3.9065      2.00000
    132       4.0011      2.00000
    133       4.1066      2.00000
    134       4.1859      2.00000
    135       4.1937      2.00000
    136       4.2868      2.00000
    137       4.4849      2.00000
    138       4.5478      2.00000
    139       4.7147      2.00000
    140       4.9257      1.46139
    141       5.0108      0.00000
    142       6.8305      0.00000
    143       7.7375      0.00000
    144       7.8847      0.00000
    145       9.7301      0.00000
    146      10.4286      0.00000
    147      10.6703      0.00000
    148      10.8033      0.00000
    149      10.9664      0.00000
    150      11.1843      0.00000
    151      11.3000      0.00000
    152      11.4177      0.00000
    153      11.7336      0.00000
    154      11.8718      0.00000
    155      11.9269      0.00000
    156      12.1324      0.00000
    157      12.2234      0.00000
    158      12.4676      0.00000
    159      12.5638      0.00000
    160      12.8519      0.00000
    161      12.9657      0.00000
    162      13.0178      0.00000
    163      13.2258      0.00000
    164      13.3535      0.00000
    165      13.4148      0.00000
    166      13.6351      0.00000
    167      13.6651      0.00000
    168      13.8313      0.00000

 k-point    15 :      -0.3750   -0.1250    0.2500
  band No.  band energies     occupation 
      1     -10.3136      2.00000
      2     -10.0698      2.00000
      3      -9.9855      2.00000
      4      -9.8736      2.00000
      5      -9.8006      2.00000
      6      -9.7273      2.00000
      7      -9.6755      2.00000
      8      -9.6493      2.00000
      9      -9.6214      2.00000
     10      -9.5881      2.00000
     11      -9.5642      2.00000
     12      -9.5538      2.00000
     13      -9.5113      2.00000
     14      -9.4418      2.00000
     15      -9.3159      2.00000
     16      -8.7835      2.00000
     17      -8.7012      2.00000
     18      -8.6690      2.00000
     19      -8.6492      2.00000
     20      -8.6247      2.00000
     21      -8.5896      2.00000
     22      -8.5455      2.00000
     23      -8.5234      2.00000
     24      -8.4901      2.00000
     25      -8.4779      2.00000
     26      -8.4657      2.00000
     27      -8.4565      2.00000
     28      -8.4378      2.00000
     29      -8.4271      2.00000
     30      -8.3568      2.00000
     31      -8.3255      2.00000
     32      -8.3108      2.00000
     33      -8.2557      2.00000
     34      -8.2103      2.00000
     35      -8.0766      2.00000
     36      -7.8657      2.00000
     37      -7.8618      2.00000
     38      -7.8403      2.00000
     39      -7.8266      2.00000
     40      -7.8206      2.00000
     41      -7.8144      2.00000
     42      -7.7915      2.00000
     43      -7.7824      2.00000
     44      -7.7722      2.00000
     45      -7.7584      2.00000
     46      -7.7448      2.00000
     47      -7.7396      2.00000
     48      -7.7368      2.00000
     49      -7.7249      2.00000
     50      -7.7208      2.00000
     51      -7.7102      2.00000
     52      -7.7084      2.00000
     53      -7.6934      2.00000
     54      -7.6829      2.00000
     55      -7.6820      2.00000
     56      -7.6695      2.00000
     57      -7.6568      2.00000
     58      -7.6473      2.00000
     59      -7.6430      2.00000
     60      -7.6349      2.00000
     61      -7.6322      2.00000
     62      -7.6227      2.00000
     63      -7.6166      2.00000
     64      -7.6067      2.00000
     65      -7.5993      2.00000
     66      -7.5921      2.00000
     67      -7.5878      2.00000
     68      -7.5739      2.00000
     69      -7.5701      2.00000
     70      -7.5650      2.00000
     71      -7.5564      2.00000
     72      -7.5440      2.00000
     73      -7.5388      2.00000
     74      -7.5265      2.00000
     75      -7.5118      2.00000
     76      -7.4938      2.00000
     77      -7.4746      2.00000
     78      -7.4611      2.00000
     79      -7.4553      2.00000
     80      -7.4282      2.00000
     81      -7.4158      2.00000
     82      -7.4025      2.00000
     83      -7.3756      2.00000
     84      -7.2215      2.00000
     85      -6.9747      2.00000
     86      -6.6770      2.00000
     87      -6.4434      2.00000
     88      -6.3074      2.00000
     89      -6.2210      2.00000
     90      -6.1379      2.00000
     91      -6.0525      2.00000
     92      -5.9792      2.00000
     93      -5.9232      2.00000
     94      -5.8267      2.00000
     95      -5.7535      2.00000
     96      -2.1711      2.00000
     97      -0.8387      2.00000
     98      -0.7921      2.00000
     99      -0.6194      2.00000
    100      -0.5617      2.00000
    101      -0.4198      2.00000
    102      -0.3523      2.00000
    103      -0.2639      2.00000
    104      -0.0600      2.00000
    105       0.1733      2.00000
    106       0.3750      2.00000
    107       0.4775      2.00000
    108       0.8011      2.00000
    109       1.0434      2.00000
    110       1.1297      2.00000
    111       1.3131      2.00000
    112       1.4958      2.00000
    113       1.7170      2.00000
    114       1.8797      2.00000
    115       1.9823      2.00000
    116       2.1172      2.00000
    117       2.2965      2.00000
    118       2.4243      2.00000
    119       2.6100      2.00000
    120       2.7260      2.00000
    121       2.7886      2.00000
    122       2.9249      2.00000
    123       3.0540      2.00000
    124       3.2332      2.00000
    125       3.3185      2.00000
    126       3.3503      2.00000
    127       3.4486      2.00000
    128       3.4931      2.00000
    129       3.6270      2.00000
    130       3.8368      2.00000
    131       3.9119      2.00000
    132       4.0109      2.00000
    133       4.0879      2.00000
    134       4.1671      2.00000
    135       4.2245      2.00000
    136       4.2883      2.00000
    137       4.4551      2.00000
    138       4.6161      2.00000
    139       4.6813      2.00000
    140       4.9430      0.06569
    141       5.0119      0.00000
    142       6.7331      0.00000
    143       7.7567      0.00000
    144       7.9636      0.00000
    145       9.7114      0.00000
    146      10.4591      0.00000
    147      10.6213      0.00000
    148      10.8071      0.00000
    149      11.0034      0.00000
    150      11.1601      0.00000
    151      11.2862      0.00000
    152      11.5625      0.00000
    153      11.6237      0.00000
    154      11.8133      0.00000
    155      11.9688      0.00000
    156      12.0744      0.00000
    157      12.2851      0.00000
    158      12.4982      0.00000
    159      12.6112      0.00000
    160      12.7869      0.00000
    161      12.9302      0.00000
    162      13.0307      0.00000
    163      13.1775      0.00000
    164      13.3623      0.00000
    165      13.4162      0.00000
    166      13.5283      0.00000
    167      13.6992      0.00000
    168      13.7441      0.00000

 k-point    16 :      -0.1250   -0.1250    0.2500
  band No.  band energies     occupation 
      1     -10.5087      2.00000
      2     -10.1865      2.00000
      3      -9.9078      2.00000
      4      -9.8043      2.00000
      5      -9.7733      2.00000
      6      -9.7327      2.00000
      7      -9.6768      2.00000
      8      -9.6374      2.00000
      9      -9.6170      2.00000
     10      -9.5840      2.00000
     11      -9.5604      2.00000
     12      -9.5512      2.00000
     13      -9.5178      2.00000
     14      -9.4342      2.00000
     15      -9.3591      2.00000
     16      -8.7787      2.00000
     17      -8.6977      2.00000
     18      -8.6783      2.00000
     19      -8.6537      2.00000
     20      -8.6178      2.00000
     21      -8.5705      2.00000
     22      -8.5429      2.00000
     23      -8.5235      2.00000
     24      -8.4807      2.00000
     25      -8.4739      2.00000
     26      -8.4648      2.00000
     27      -8.4461      2.00000
     28      -8.4326      2.00000
     29      -8.3815      2.00000
     30      -8.3576      2.00000
     31      -8.3248      2.00000
     32      -8.3111      2.00000
     33      -8.2634      2.00000
     34      -8.2297      2.00000
     35      -8.0952      2.00000
     36      -7.8902      2.00000
     37      -7.8875      2.00000
     38      -7.8457      2.00000
     39      -7.8351      2.00000
     40      -7.8284      2.00000
     41      -7.8187      2.00000
     42      -7.8127      2.00000
     43      -7.7899      2.00000
     44      -7.7783      2.00000
     45      -7.7727      2.00000
     46      -7.7659      2.00000
     47      -7.7564      2.00000
     48      -7.7437      2.00000
     49      -7.7386      2.00000
     50      -7.7150      2.00000
     51      -7.7093      2.00000
     52      -7.7004      2.00000
     53      -7.6900      2.00000
     54      -7.6793      2.00000
     55      -7.6704      2.00000
     56      -7.6641      2.00000
     57      -7.6577      2.00000
     58      -7.6471      2.00000
     59      -7.6413      2.00000
     60      -7.6360      2.00000
     61      -7.6252      2.00000
     62      -7.6134      2.00000
     63      -7.6083      2.00000
     64      -7.5995      2.00000
     65      -7.5924      2.00000
     66      -7.5863      2.00000
     67      -7.5763      2.00000
     68      -7.5706      2.00000
     69      -7.5620      2.00000
     70      -7.5559      2.00000
     71      -7.5425      2.00000
     72      -7.5344      2.00000
     73      -7.5257      2.00000
     74      -7.5200      2.00000
     75      -7.4988      2.00000
     76      -7.4892      2.00000
     77      -7.4605      2.00000
     78      -7.4475      2.00000
     79      -7.4386      2.00000
     80      -7.4308      2.00000
     81      -7.4153      2.00000
     82      -7.3933      2.00000
     83      -7.2148      2.00000
     84      -6.9273      2.00000
     85      -6.7327      2.00000
     86      -6.5819      2.00000
     87      -6.4878      2.00000
     88      -6.3904      2.00000
     89      -6.2791      2.00000
     90      -6.2017      2.00000
     91      -6.1617      2.00000
     92      -6.0001      2.00000
     93      -5.9053      2.00000
     94      -5.8109      2.00000
     95      -5.7861      2.00000
     96      -2.1606      2.00000
     97      -1.0849      2.00000
     98      -1.0005      2.00000
     99      -0.8673      2.00000
    100      -0.7154      2.00000
    101      -0.5230      2.00000
    102      -0.4498      2.00000
    103      -0.4124      2.00000
    104      -0.2922      2.00000
    105      -0.1921      2.00000
    106       0.2562      2.00000
    107       0.3438      2.00000
    108       0.5237      2.00000
    109       0.7623      2.00000
    110       1.1406      2.00000
    111       1.3728      2.00000
    112       1.5143      2.00000
    113       1.6081      2.00000
    114       1.7095      2.00000
    115       2.1261      2.00000
    116       2.2505      2.00000
    117       2.4057      2.00000
    118       2.6253      2.00000
    119       2.7499      2.00000
    120       2.8740      2.00000
    121       3.0211      2.00000
    122       3.1469      2.00000
    123       3.1933      2.00000
    124       3.2828      2.00000
    125       3.3959      2.00000
    126       3.4630      2.00000
    127       3.6463      2.00000
    128       3.7125      2.00000
    129       3.8462      2.00000
    130       3.9881      2.00000
    131       4.0359      2.00000
    132       4.1313      2.00000
    133       4.1777      2.00000
    134       4.2948      2.00000
    135       4.3588      2.00000
    136       4.4912      2.00000
    137       4.6890      2.00000
    138       4.7735      2.00000
    139       4.8990      1.99999
    140       5.0767      0.00000
    141       5.2253      0.00000
    142       7.4575      0.00000
    143       7.5751      0.00000
    144       8.3135      0.00000
    145       9.0536      0.00000
    146       9.9309      0.00000
    147      10.1870      0.00000
    148      10.5322      0.00000
    149      10.6546      0.00000
    150      10.8394      0.00000
    151      10.9449      0.00000
    152      11.1071      0.00000
    153      11.2511      0.00000
    154      11.2649      0.00000
    155      11.4722      0.00000
    156      11.8590      0.00000
    157      11.9297      0.00000
    158      12.1758      0.00000
    159      12.4444      0.00000
    160      12.5664      0.00000
    161      12.8095      0.00000
    162      13.0169      0.00000
    163      13.1527      0.00000
    164      13.3379      0.00000
    165      13.3818      0.00000
    166      13.6401      0.00000
    167      13.7605      0.00000
    168      13.8447      0.00000


--------------------------------------------------------------------------------------------------------


 soft charge-density along one line, spin component           1
         0         1         2         3         4         5         6         7         8         9
 total charge-density along one line
 
 pseudopotential strength for first ion, spin component:           1
-11.155   0.003   0.008  -0.008  -0.000   0.302  -0.002  -0.004
  0.003 -11.166  -0.006  -0.007   0.009  -0.002   0.309   0.004
  0.008  -0.006 -11.153   0.002  -0.011  -0.004   0.004   0.302
 -0.008  -0.007   0.002 -11.145   0.003   0.005   0.004  -0.001
 -0.000   0.009  -0.011   0.003 -11.154   0.000  -0.005   0.007
  0.302  -0.002  -0.004   0.005   0.000   4.964   0.001   0.002
 -0.002   0.309   0.004   0.004  -0.005   0.001   4.957  -0.002
 -0.004   0.004   0.302  -0.001   0.007   0.002  -0.002   4.963
  0.005   0.004  -0.001   0.297  -0.001  -0.004  -0.002   0.001
  0.000  -0.005   0.007  -0.001   0.302   0.000   0.003  -0.005
 -0.000   0.001   0.001   0.000  -0.002   0.001  -0.001  -0.002
  0.003  -0.000  -0.002  -0.001   0.001  -0.001  -0.000   0.001
 -0.002   0.001   0.002   0.000   0.001   0.000   0.000  -0.001
  0.000  -0.003  -0.001  -0.001   0.000  -0.000   0.002   0.001
 -0.004   0.000   0.001   0.002  -0.002   0.003  -0.000  -0.001
  0.002   0.001  -0.002  -0.000  -0.005   0.000  -0.004   0.002
 -0.000   0.005  -0.001   0.001  -0.001   0.000  -0.004   0.001
  0.004  -0.000  -0.002   0.000   0.002  -0.002   0.000   0.001
 total augmentation occupancy for first ion, spin component:           1
  2.012  -0.000  -0.000  -0.003   0.000   0.035  -0.001  -0.000  -0.013   0.001   0.002  -0.000   0.001  -0.000   0.027   0.000
 -0.000   2.008  -0.000   0.000  -0.002  -0.001   0.022  -0.001  -0.000  -0.009  -0.001  -0.001  -0.009   0.004  -0.000  -0.002
 -0.000  -0.000   2.011   0.000  -0.001  -0.000  -0.001   0.037   0.002  -0.003  -0.003  -0.000  -0.006   0.022   0.000  -0.000
 -0.003   0.000   0.000   2.009   0.000  -0.013  -0.000   0.002   0.026   0.000  -0.001   0.000  -0.000   0.001  -0.015  -0.000
  0.000  -0.002  -0.001   0.000   2.011   0.001  -0.009  -0.003   0.000   0.032   0.002   0.001   0.013  -0.003  -0.001   0.002
  0.035  -0.001  -0.000  -0.013   0.001   0.094  -0.003   0.000  -0.036   0.003  -0.006   0.000   0.024  -0.001   0.217   0.000
 -0.001   0.022  -0.001  -0.000  -0.009  -0.003   0.056  -0.006  -0.001  -0.027  -0.021  -0.001  -0.122  -0.012  -0.003  -0.003
 -0.000  -0.001   0.037   0.002  -0.003   0.000  -0.006   0.112   0.007  -0.008  -0.017  -0.001  -0.033   0.232   0.005  -0.001
 -0.013  -0.000   0.002   0.026   0.000  -0.036  -0.001   0.007   0.066   0.001   0.002   0.000  -0.002   0.022  -0.142  -0.000
  0.001  -0.009  -0.003   0.000   0.032   0.003  -0.027  -0.008   0.001   0.086   0.026   0.001   0.171  -0.011  -0.009   0.004
  0.002  -0.001  -0.003  -0.001   0.002  -0.006  -0.021  -0.017   0.002   0.026   1.300   0.040   0.045  -0.006   0.003   0.002
 -0.000  -0.001  -0.000   0.000   0.001   0.000  -0.001  -0.001   0.000   0.001   0.040   0.002   0.002   0.000   0.001   0.000
  0.001  -0.009  -0.006  -0.000   0.013   0.024  -0.122  -0.033  -0.002   0.171   0.045   0.002   0.961  -0.053  -0.010   0.021
 -0.000   0.004   0.022   0.001  -0.003  -0.001  -0.012   0.232   0.022  -0.011  -0.006   0.000  -0.053   0.970   0.002  -0.001
  0.027  -0.000   0.000  -0.015  -0.001   0.217  -0.003   0.005  -0.142  -0.009   0.003   0.001  -0.010   0.002   1.085  -0.000
  0.000  -0.002  -0.000  -0.000   0.002   0.000  -0.003  -0.001  -0.000   0.004   0.002   0.000   0.021  -0.001  -0.000   0.001
 -0.000  -0.000   0.003   0.000  -0.000  -0.000  -0.000   0.005   0.000  -0.000  -0.000  -0.000  -0.001   0.022   0.000  -0.000
  0.003  -0.000  -0.000  -0.002  -0.000   0.005  -0.000   0.000  -0.003  -0.000   0.001   0.000  -0.000   0.000   0.025  -0.000


------------------------ aborting loop because EDIFF is reached ----------------------------------------


    CHARGE:  cpu time    0.1160: real time    0.1184
    FORLOC:  cpu time    0.0040: real time    0.0037
    FORNL :  cpu time    0.9160: real time    0.9156
    FORCOR:  cpu time    0.0200: real time    0.0198
    FORHAR:  cpu time    0.0080: real time    0.0070
    MIXING:  cpu time    0.0000: real time    0.0010
    OFIELD:  cpu time    0.0000: real time    0.0001

 VOLUME and BASIS-vectors are now :
 -----------------------------------------------------------------------------
  energy-cutoff  :      550.00
  volume of cell :      353.46
      direct lattice vectors                 reciprocal lattice vectors
     6.303928400  0.000000000  0.000000000     0.158631243  0.000000000  0.000000000
     0.000000000  5.459364400  0.000000000     0.000000000  0.183171506  0.000000000
     0.000000000  0.000000000 10.270302800     0.000000000  0.000000000  0.097368113

  length of vectors
     6.303928400  5.459364400 10.270302800     0.158631243  0.183171506  0.097368113


 FORCES acting on ions
    electron-ion (+dipol)            ewald-force                    non-local-force                 convergence-correction
 -----------------------------------------------------------------------------------------------
   0.223E+02 0.520E+02 0.248E+02   -.211E+02 -.519E+02 -.256E+02   -.101E+01 -.970E+00 0.762E+00   0.291E-02 -.908E-02 0.745E-02
   -.112E+02 0.266E+02 0.266E+02   0.118E+02 -.268E+02 -.274E+02   -.579E+00 0.119E+00 0.233E+00   -.321E-02 -.125E-01 0.688E-02
   0.243E+02 -.730E+02 0.413E+02   -.238E+02 0.708E+02 -.425E+02   -.864E+00 0.241E+01 0.843E+00   -.190E-02 0.255E-01 0.643E-02
   -.239E+02 -.105E+02 -.224E+02   0.232E+02 0.117E+02 0.214E+02   0.106E+01 -.104E+01 0.178E+01   0.501E-02 -.573E-02 0.281E-01
   0.166E+02 0.367E+02 0.238E+02   -.178E+02 -.371E+02 -.228E+02   0.500E+00 -.671E+00 -.887E+00   0.872E-02 -.717E-02 -.373E-01
   -.655E+01 0.228E+02 -.173E+02   0.700E+01 -.227E+02 0.165E+02   -.617E+00 -.452E+00 0.120E+01   0.390E-03 -.494E-02 -.249E-01
   0.149E+02 -.143E+02 -.150E+01   -.130E+02 0.145E+02 -.359E-01   -.168E+01 -.370E+00 0.166E+01   -.546E-02 -.635E-03 -.202E-01
   -.308E+02 -.494E+02 0.185E+02   0.290E+02 0.487E+02 -.193E+02   0.246E+01 0.164E+01 0.465E+00   0.498E-02 0.516E-02 -.253E-01
   0.182E+02 0.201E+02 -.271E+02   -.185E+02 -.200E+02 0.265E+02   0.249E+00 -.118E+00 0.748E+00   -.514E-02 -.161E-02 -.170E-01
   -.279E+02 0.267E+02 0.152E+02   0.279E+02 -.248E+02 -.142E+02   0.384E+00 -.178E+01 -.191E+01   0.703E-02 -.604E-02 -.178E-01
   0.157E+02 -.256E+02 -.661E+02   -.162E+02 0.261E+02 0.665E+02   0.468E+00 -.312E+00 0.308E+00   0.677E-03 0.105E-01 -.214E-01
   -.218E+02 -.112E+02 -.514E+02   0.221E+02 0.102E+02 0.365E+02   -.358E+00 0.919E+00 0.125E+02   0.513E-02 0.621E-03 -.194E-01
   0.171E+02 0.473E+02 -.137E+02   -.167E+02 -.455E+02 0.145E+02   -.280E+00 -.235E+01 -.844E+00   -.295E-02 -.256E-01 0.137E-01
   -.262E+02 -.296E+02 -.296E+02   0.259E+02 0.161E+02 0.341E+02   0.397E+00 0.109E+02 -.350E+01   0.540E-02 -.144E-01 0.320E-01
   0.496E+02 -.127E+02 -.145E+02   -.605E+02 0.192E+02 0.215E+02   0.766E+01 -.517E+01 -.572E+01   -.156E-01 0.164E-01 0.222E-01
   -.632E+02 0.274E+02 0.908E+01   0.724E+02 -.210E+02 -.165E+01   -.656E+01 -.551E+01 -.673E+01   0.246E-01 0.160E-01 0.244E-01
   0.137E+02 0.628E+01 0.211E+01   -.150E+02 -.577E+01 -.208E+01   0.138E+01 -.724E+00 0.693E+00   -.574E-03 -.558E-02 0.122E-01
   -.133E+02 0.219E+02 0.371E+02   0.140E+02 -.239E+02 -.388E+02   -.401E+00 0.233E+01 0.958E+00   0.122E-02 -.675E-02 0.148E-01
   0.391E+02 -.306E+02 0.291E+02   -.403E+02 0.327E+02 -.308E+02   0.221E+00 -.161E+01 0.164E+01   -.108E-01 0.784E-02 0.186E-01
   -.369E+02 -.663E+01 0.190E+02   0.380E+02 0.723E+01 -.188E+02   -.245E+00 -.117E+01 -.261E+00   0.962E-02 0.670E-02 0.160E-01
   -.184E+02 0.153E+02 0.261E+02   0.205E+02 -.161E+02 -.276E+02   -.206E+01 0.142E+01 0.118E+01   0.121E-03 0.196E-02 -.673E-02
   -.997E+01 0.262E+02 -.740E+01   0.113E+02 -.273E+02 0.923E+01   -.139E+01 0.532E+00 -.159E+01   -.218E-02 -.170E-02 -.927E-02
   0.117E+02 -.292E+02 0.336E+02   -.126E+02 0.301E+02 -.355E+02   0.765E+00 0.683E+00 0.138E+01   0.600E-04 0.390E-02 -.623E-02
   0.975E+01 -.587E+01 0.173E+02   -.112E+02 0.648E+01 -.184E+02   0.108E+01 -.122E+01 0.562E+00   -.544E-03 -.283E-02 -.826E-02
   0.224E+02 0.134E+02 -.214E+01   -.239E+02 -.145E+02 0.127E+01   0.115E+01 0.133E+01 0.173E+01   -.118E-02 -.463E-02 -.956E-02
   -.515E+01 -.106E+02 0.207E+02   0.514E+01 0.109E+02 -.221E+02   0.278E+00 -.170E+00 0.103E+01   0.104E-02 -.402E-02 -.192E-01
   -.111E+02 0.611E+01 0.954E+01   0.117E+02 -.605E+01 -.108E+02   -.639E+00 -.663E+00 0.165E+01   -.307E-02 0.293E-02 -.185E-01
   0.252E+01 0.549E+00 -.514E+01   -.231E+01 -.141E+01 0.439E+01   -.206E+00 0.160E+01 0.168E+01   0.210E-02 0.562E-02 -.160E-01
   0.134E+02 0.269E+02 -.381E+02   -.150E+02 -.279E+02 0.406E+02   0.256E+01 0.119E+01 -.306E+01   -.793E-02 -.149E-02 0.121E-01
   0.179E+01 0.940E+01 -.351E+02   -.200E+01 -.860E+01 0.359E+02   -.471E+00 -.147E+01 -.592E-01   0.760E-02 -.358E-02 0.112E-01
   0.107E+02 -.729E+02 -.274E+02   -.101E+02 0.768E+02 0.294E+02   -.861E+00 -.284E+01 -.324E+01   -.462E-02 0.600E-02 0.109E-01
 -----------------------------------------------------------------------------------------------
   -.242E+01 0.352E+01 -.515E+01   -.178E-13 -.142E-13 -.632E-12   0.240E+01 -.351E+01 0.519E+01   0.214E-01 -.917E-02 -.402E-01
 
 
 POSITION                                       TOTAL-FORCE (eV/Angst)
 -----------------------------------------------------------------------------------
      1.54134      0.96584      2.51141         0.180987     -0.935681     -0.064000
      4.67542      0.95123      2.61629         0.077092     -0.145612     -0.546150
      0.01611      3.68934      2.50754        -0.355726      0.243309     -0.348127
      3.13686      3.64177      2.58739         0.361715      0.142644      0.824061
      0.10786      1.80610      5.09428        -0.678503     -1.090709      0.083043
      3.18608      1.83331      5.16960        -0.163781     -0.308550      0.428779
      1.56431      4.52058      5.16957         0.215094     -0.172313      0.104513
      4.70782      4.44694      5.18481         0.728282      0.927998     -0.386203
      1.55281      0.87046      7.73517        -0.100188     -0.025455      0.161722
      4.71098      0.82836      7.68392         0.408262      0.172056     -0.864586
      0.03365      3.52796      7.68632        -0.090377      0.247173      0.732873
      3.15400      3.59505      7.94100        -0.018569     -0.049529     -2.477432
      6.25099      1.79520      0.01540         0.175180     -0.597318     -0.018896
      3.08983      2.06168     10.16880         0.123164     -2.625088      1.038763
      1.89923      4.44180     10.13210        -3.207886      1.282074      1.260964
      4.54459      4.56499     10.19510         2.730857      0.875705      0.731040
      6.24063      1.84855      1.90877         0.106222     -0.219114      0.737009
      3.11700      1.86348      1.89961         0.237301      0.352862     -0.732373
      1.66558      4.53423      1.83807        -1.005664      0.517761     -0.030073
      4.62665      4.61389      1.87442         0.950883     -0.553192      0.021583
      1.64387      0.83520      4.47534        -0.012690      0.581242     -0.347661
      4.76022      0.90218      4.53053        -0.075734     -0.610534      0.227459
      0.01724      3.55633      4.48273        -0.142520      1.637594     -0.496023
      3.15205      3.64744      4.53223        -0.400666     -0.618785     -0.583771
      0.01680      1.72205      6.98859        -0.376814      0.173659      0.841594
      3.11975      1.81211      7.15987         0.269504      0.052294     -0.413363
      1.61158      4.51894      7.12675         0.003164     -0.601311      0.334629
      4.71334      4.40092      7.10450         0.006088      0.752750      0.917536
      1.54083      0.88663      9.69133         1.032132      0.149808     -0.578465
      4.66126      1.00817      9.56606        -0.682621     -0.662739      0.710903
      0.04804      3.58860      9.72109        -0.294188      1.107000     -1.269349
 -----------------------------------------------------------------------------------
    total drift:                               -0.000046     -0.001453      0.004358


--------------------------------------------------------------------------------------------------------



  FREE ENERGIE OF THE ION-ELECTRON SYSTEM (eV)
  ---------------------------------------------------
  free  energy   TOTEN  =      -197.94059262 eV

  energy  without entropy=     -197.93868544  energy(sigma->0) =     -197.93963903
 


--------------------------------------------------------------------------------------------------------


    POTLOK:  cpu time    0.0200: real time    0.0182


--------------------------------------------------------------------------------------------------------


     LOOP+:  cpu time   62.4400: real time   62.6108
    4ORBIT:  cpu time    0.0000: real time    0.0000

 total amount of memory used by VASP MPI-rank0    54108. kBytes
=======================================================================

   base      :      30000. kBytes
   nonl-proj :       5941. kBytes
   fftplans  :       1943. kBytes
   grid      :       3088. kBytes
   one-center:         62. kBytes
   wavefun   :      13074. kBytes
 
  
  
 General timing and accounting informations for this job:
 ========================================================
  
                  Total CPU time used (sec):       67.936
                            User time (sec):       65.144
                          System time (sec):        2.792
                         Elapsed time (sec):       68.208
  
                   Maximum memory used (kb):       76964.
                   Average memory used (kb):           0.
  
                          Minor page faults:        14426
                          Major page faults:            0
                 Voluntary context switches:          408
