 vasp.5.4.4.18Apr17-6-g9f103f2a35 (build Jul 19 2018 11:24:23) complex          
  
 executed on             CrayXC50 date 2020.08.24  18:15:53
 running on   36 total cores
 distrk:  each k-point on   36 cores,    1 groups
 distr:  one band on NCORES_PER_BAND=   9 cores,    4 groups


--------------------------------------------------------------------------------------------------------


 INCAR:
 POTCAR:    PAW_PBE Ga_d 06Jul2010                
 POTCAR:    PAW_PBE N 08Apr2002                   
 POTCAR:    PAW_PBE Ga_d 06Jul2010                
   VRHFIN =Ga: s2p1                                                             
   LEXCH  = PE                                                                  
   EATOM  =  2148.8298 eV,  157.9345 Ry                                         
                                                                                
   TITEL  = PAW_PBE Ga_d 06Jul2010                                              
   LULTRA =        F    use ultrasoft PP ?                                      
   IUNSCR =        1    unscreen: 0-lin 1-nonlin 2-no                           
   RPACOR =    1.700    partial core radius                                     
   POMASS =   69.723; ZVAL   =   13.000    mass and valenz                      
   RCORE  =    2.300    outmost cutoff radius                                   
   RWIGS  =    2.300; RWIGS  =    1.217    wigner-seitz radius (au A)           
   ENMAX  =  282.691; ENMIN  =  212.018 eV                                      
   ICORE  =        3    local potential                                         
   LCOR   =        T    correct aug charges                                     
   LPAW   =        T    paw PP                                                  
   EAUG   =  490.690                                                            
   DEXC   =    0.000                                                            
   RMAX   =    2.341    core radius for proj-oper                               
   RAUG   =    1.300    factor for augmentation sphere                          
   RDEP   =    2.413    radius for radial grids                                 
   RDEPT  =    1.856    core radius for aug-charge                              
                                                                                
   Atomic configuration                                                         
    9 entries                                                                   
     n  l   j            E        occ.                                          
     1  0  0.50    -10228.7831   2.0000                                         
     2  0  0.50     -1262.1604   2.0000                                         
     2  1  1.50     -1098.6333   6.0000                                         
     3  0  0.50      -148.1110   2.0000                                         
     3  1  1.50       -98.8436   6.0000                                         
     3  2  2.50       -19.1549  10.0000                                         
     4  0  0.50        -8.9483   2.0000                                         
     4  1  0.50        -2.5791   1.0000                                         
     4  3  2.50        -2.7416   0.0000                                         
   Description                                                                  
     l       E           TYP  RCUT    TYP  RCUT                                 
     2    -19.1549037     23  2.300                                             
     2     -5.4423304     23  2.300                                             
     0     -8.9483111     23  2.300                                             
     0     68.0291300     23  2.300                                             
     1     -2.5790802     23  2.100                                             
     1     81.6349560     23  2.300                                             
     3      6.8029130     23  2.300                                             
  local pseudopotential read in
  partial core-charges read in
  partial kinetic energy density read in
  atomic valenz-charges read in
  non local Contribution for L=           2  read in
    real space projection operators read in
  non local Contribution for L=           2  read in
    real space projection operators read in
  non local Contribution for L=           0  read in
    real space projection operators read in
  non local Contribution for L=           0  read in
    real space projection operators read in
  non local Contribution for L=           1  read in
    real space projection operators read in
  non local Contribution for L=           1  read in
    real space projection operators read in
    PAW grid and wavefunctions read in
 
   number of l-projection  operators is LMAX  =           6
   number of lm-projection operators is LMMAX =          18
 
 POTCAR:    PAW_PBE N 08Apr2002                   
   VRHFIN =N: s2p3                                                              
   LEXCH  = PE                                                                  
   EATOM  =   264.5486 eV,   19.4438 Ry                                         
                                                                                
   TITEL  = PAW_PBE N 08Apr2002                                                 
   LULTRA =        F    use ultrasoft PP ?                                      
   IUNSCR =        1    unscreen: 0-lin 1-nonlin 2-no                           
   RPACOR =    1.200    partial core radius                                     
   POMASS =   14.001; ZVAL   =    5.000    mass and valenz                      
   RCORE  =    1.500    outmost cutoff radius                                   
   RWIGS  =    1.400; RWIGS  =    0.741    wigner-seitz radius (au A)           
   ENMAX  =  400.000; ENMIN  =  300.000 eV                                      
   ICORE  =        2    local potential                                         
   LCOR   =        T    correct aug charges                                     
   LPAW   =        T    paw PP                                                  
   EAUG   =  627.112                                                            
   DEXC   =    0.000                                                            
   RMAX   =    1.529    core radius for proj-oper                               
   RAUG   =    1.300    factor for augmentation sphere                          
   RDEP   =    1.514    radius for radial grids                                 
   RDEPT  =    1.338    core radius for aug-charge                              
                                                                                
   Atomic configuration                                                         
    4 entries                                                                   
     n  l   j            E        occ.                                          
     1  0  0.50      -384.7179   2.0000                                         
     2  0  0.50       -18.5828   2.0000                                         
     2  1  0.50        -7.0898   3.0000                                         
     3  2  1.50        -6.8029   0.0000                                         
   Description                                                                  
     l       E           TYP  RCUT    TYP  RCUT                                 
     0    -18.5828119     23  1.200                                             
     0    -13.5018863     23  1.200                                             
     1     -7.0897853     23  1.500                                             
     1      9.5240782     23  1.500                                             
     2     -6.8029130      7  1.500                                             
  local pseudopotential read in
  partial core-charges read in
  partial kinetic energy density read in
  atomic valenz-charges read in
  non local Contribution for L=           0  read in
    real space projection operators read in
  non local Contribution for L=           0  read in
    real space projection operators read in
  non local Contribution for L=           1  read in
    real space projection operators read in
  non local Contribution for L=           1  read in
    real space projection operators read in
    PAW grid and wavefunctions read in
 
   number of l-projection  operators is LMAX  =           4
   number of lm-projection operators is LMMAX =           8
 

 ----------------------------------------------------------------------------- 
|                                                                             |
|  ADVICE TO THIS USER RUNNING 'VASP/VAMP'   (HEAR YOUR MASTER'S VOICE ...):  |
|                                                                             |
|      You have a (more or less) 'large supercell' and for larger cells       |
|      it might be more efficient to use real space projection opertators     |
|      So try LREAL= Auto  in the INCAR   file.                               |
|      Mind:          For very  accurate calculation you might also keep the  |
|      reciprocal projection scheme          (i.e. LREAL=.FALSE.)             |
|                                                                             |
 ----------------------------------------------------------------------------- 

  PAW_PBE Ga_d 06Jul2010                :
 energy of atom  1       EATOM=-2148.8298
 kinetic energy error for atom=    0.0025 (will be added to EATOM!!)
  PAW_PBE N 08Apr2002                   :
 energy of atom  2       EATOM= -264.5486
 kinetic energy error for atom=    0.0116 (will be added to EATOM!!)
 
 
 POSCAR: system_name                             
  positions in direct lattice
  No initial velocities read in
 exchange correlation table for  LEXCH =        8
   RHO(1)=    0.500       N(1)  =     2000
   RHO(2)=  100.500       N(2)  =     4000
 


--------------------------------------------------------------------------------------------------------


 ion  position               nearest neighbor table
   1  0.245  0.177  0.245-  18 1.91  17 1.93  21 1.97  19 2.01
   2  0.742  0.174  0.255-  22 1.92  17 1.94  18 1.94  20 1.94
   3  0.003  0.676  0.244-  17 1.94  19 1.97  23 1.98  20 2.03
   4  0.498  0.667  0.252-  19 1.88  18 1.91  20 1.92  24 1.94
   5  0.017  0.331  0.496-  23 1.86  25 1.90  21 1.92  22 1.97
   6  0.505  0.336  0.503-  24 1.92  22 1.94  21 1.96  26 1.99
   7  0.248  0.828  0.503-  21 1.91  24 1.92  23 1.95  27 1.96
   8  0.747  0.815  0.505-  24 1.87  28 1.92  23 1.97  22 2.02
   9  0.246  0.159  0.753-  25 1.91  27 1.91  26 1.92  29 1.96
  10  0.747  0.152  0.748-  30 1.89  26 1.94  25 1.97  28 1.97
  11  0.005  0.646  0.748-  28 1.93  25 1.94  27 1.95  31 2.04
  12  0.500  0.659  0.773-  28 1.94  26 1.95  27 1.97  15 2.66  14 2.71  16 2.82
  13  0.992  0.329  0.001-  31 1.88  17 1.89  30 1.91  29 1.93
  14  0.490  0.378  0.990-  30 1.99  29 2.00  18 2.01  15 2.66  12 2.71  16 2.90
  15  0.301  0.814  0.987-  29 1.99  19 1.99  31 2.08  16 2.65  14 2.66  12 2.66
  16  0.721  0.836  0.993-  20 1.95  30 2.01  31 2.11  15 2.65  12 2.82  14 2.90
  17  0.990  0.339  0.186-  13 1.89   1 1.93   3 1.94   2 1.94
  18  0.494  0.341  0.185-   4 1.91   1 1.91   2 1.94  14 2.01
  19  0.264  0.831  0.179-   4 1.88   3 1.97  15 1.99   1 2.01
  20  0.734  0.845  0.183-   4 1.92   2 1.94  16 1.95   3 2.03
  21  0.261  0.153  0.436-   7 1.91   5 1.92   6 1.96   1 1.97
  22  0.755  0.165  0.441-   2 1.92   6 1.94   5 1.97   8 2.02
  23  0.003  0.651  0.436-   5 1.86   7 1.95   8 1.97   3 1.98
  24  0.500  0.668  0.441-   8 1.87   7 1.92   6 1.92   4 1.94
  25  0.003  0.315  0.680-   5 1.90   9 1.91  11 1.94  10 1.97
  26  0.495  0.332  0.697-   9 1.92  10 1.94  12 1.95   6 1.99
  27  0.256  0.828  0.694-   9 1.91  11 1.95   7 1.96  12 1.97
  28  0.748  0.806  0.692-   8 1.92  11 1.93  12 1.94  10 1.97
  29  0.244  0.162  0.944-  13 1.93   9 1.96  15 1.99  14 2.00
  30  0.739  0.185  0.931-  10 1.89  13 1.91  14 1.99  16 2.01
  31  0.008  0.657  0.947-  13 1.88  11 2.04  15 2.08  16 2.11
 
  LATTYP: Found a simple orthorhombic cell.
 ALAT       =     5.4593644000
 B/A-ratio  =     1.1547000600
 C/A-ratio  =     1.8812268329
  
  Lattice vectors:
  
 A1 = (   0.0000000000,  -5.4593644000,   0.0000000000)
 A2 = (  -6.3039284000,   0.0000000000,   0.0000000000)
 A3 = (   0.0000000000,   0.0000000000, -10.2703028000)


Analysis of symmetry for initial positions (statically):
=====================================================================
 Subroutine PRICEL returns:
 Original cell was already a primitive cell.
 

 Routine SETGRP: Setting up the symmetry group for a 
 simple orthorhombic supercell.


 Subroutine GETGRP returns: Found  1 space group operations
 (whereof  1 operations were pure point group operations)
 out of a pool of  8 trial point group operations.


The static configuration has the point symmetry C_1 .


Analysis of symmetry for dynamics (positions and initial velocities):
=====================================================================
 Subroutine PRICEL returns:
 Original cell was already a primitive cell.
 

 Routine SETGRP: Setting up the symmetry group for a 
 simple orthorhombic supercell.


 Subroutine GETGRP returns: Found  1 space group operations
 (whereof  1 operations were pure point group operations)
 out of a pool of  8 trial point group operations.


The dynamic configuration has the point symmetry C_1 .


Analysis of constrained symmetry for selective dynamics:
=====================================================================
 Subroutine PRICEL returns:
 Original cell was already a primitive cell.
 

 Routine SETGRP: Setting up the symmetry group for a 
 simple orthorhombic supercell.


 Subroutine GETGRP returns: Found  1 space group operations
 (whereof  1 operations were pure point group operations)
 out of a pool of  8 trial point group operations.


The constrained configuration has the point symmetry C_1 .


 Subroutine INISYM returns: Found  1 space group operations
 (whereof  1 operations are pure point group operations),
 and found     1 'primitive' translations

 
 
 KPOINTS: automatic mesh                          

Automatic generation of k-mesh.
Space group operators:
 irot       det(A)        alpha          n_x          n_y          n_z        tau_x        tau_y        tau_z
    1     1.000000     0.000000     1.000000     0.000000     0.000000     0.000000     0.000000     0.000000
 
 Subroutine IBZKPT returns following result:
 ===========================================
 
 Found     16 irreducible k-points:
 
 Following reciprocal coordinates:
            Coordinates               Weight
  0.125000  0.125000  0.250000      2.000000
  0.375000  0.125000  0.250000      2.000000
 -0.375000  0.125000  0.250000      2.000000
 -0.125000  0.125000  0.250000      2.000000
  0.125000  0.375000  0.250000      2.000000
  0.375000  0.375000  0.250000      2.000000
 -0.375000  0.375000  0.250000      2.000000
 -0.125000  0.375000  0.250000      2.000000
  0.125000 -0.375000  0.250000      2.000000
  0.375000 -0.375000  0.250000      2.000000
 -0.375000 -0.375000  0.250000      2.000000
 -0.125000 -0.375000  0.250000      2.000000
  0.125000 -0.125000  0.250000      2.000000
  0.375000 -0.125000  0.250000      2.000000
 -0.375000 -0.125000  0.250000      2.000000
 -0.125000 -0.125000  0.250000      2.000000
 
 Following cartesian coordinates:
            Coordinates               Weight
  0.019829  0.022896  0.024342      2.000000
  0.059487  0.022896  0.024342      2.000000
 -0.059487  0.022896  0.024342      2.000000
 -0.019829  0.022896  0.024342      2.000000
  0.019829  0.068689  0.024342      2.000000
  0.059487  0.068689  0.024342      2.000000
 -0.059487  0.068689  0.024342      2.000000
 -0.019829  0.068689  0.024342      2.000000
  0.019829 -0.068689  0.024342      2.000000
  0.059487 -0.068689  0.024342      2.000000
 -0.059487 -0.068689  0.024342      2.000000
 -0.019829 -0.068689  0.024342      2.000000
  0.019829 -0.022896  0.024342      2.000000
  0.059487 -0.022896  0.024342      2.000000
 -0.059487 -0.022896  0.024342      2.000000
 -0.019829 -0.022896  0.024342      2.000000
 


--------------------------------------------------------------------------------------------------------




 Dimension of arrays:
   k-points           NKPTS =     16   k-points in BZ     NKDIM =     16   number of bands    NBANDS=    168
   number of dos      NEDOS =    301   number of ions     NIONS =     31
   non local maximal  LDIM  =      6   non local SUM 2l+1 LMDIM =     18
   total plane-waves  NPLWV = 161280
   max r-space proj   IRMAX =      1   max aug-charges    IRDMAX=  17490
   dimension x,y,z NGX =    48 NGY =   42 NGZ =   80
   dimension x,y,z NGXF=    96 NGYF=   84 NGZF=  160
   support grid    NGXF=    96 NGYF=   84 NGZF=  160
   ions per type =              16  15
   NGX,Y,Z   is equivalent  to a cutoff of  12.66, 12.79, 12.95 a.u.
   NGXF,Y,Z  is equivalent  to a cutoff of  25.32, 25.58, 25.90 a.u.

 SYSTEM =  unknown system                          
 POSCAR =  system_name                             

 Startparameter for this run:
   NWRITE =      2    write-flag & timer
   PREC   = accura    normal or accurate (medium, high low for compatibility)
   ISTART =      0    job   : 0-new  1-cont  2-samecut
   ICHARG =      1    charge: 1-file 2-atom 10-const
   ISPIN  =      1    spin polarized calculation?
   LNONCOLLINEAR =      F non collinear calculations
   LSORBIT =      F    spin-orbit coupling
   INIWAV =      1    electr: 0-lowe 1-rand  2-diag
   LASPH  =      F    aspherical Exc in radial PAW
   METAGGA=      F    non-selfconsistent MetaGGA calc.

 Electronic Relaxation 1
   ENCUT  =  550.0 eV  40.42 Ry    6.36 a.u.  12.05 10.44 19.64*2*pi/ulx,y,z
   ENINI  =  550.0     initial cutoff
   ENAUG  =  627.1 eV  augmentation charge cutoff
   NELM   =     60;   NELMIN=  2; NELMDL= -5     # of ELM steps 
   EDIFF  = 0.1E-03   stopping-criterion for ELM
   LREAL  =      F    real-space projection
   NLSPLINE    = F    spline interpolate recip. space projectors
   LCOMPAT=      F    compatible to vasp.4.4
   GGA_COMPAT  = T    GGA compatible to vasp.4.4-vasp.4.6
   LMAXPAW     = -100 max onsite density
   LMAXMIX     =    2 max onsite mixed and CHGCAR
   VOSKOWN=      0    Vosko Wilk Nusair interpolation
   ROPT   =    0.00000   0.00000
 Ionic relaxation
   EDIFFG = 0.1E-02   stopping-criterion for IOM
   NSW    =      0    number of steps for IOM
   NBLOCK =      1;   KBLOCK =      1    inner block; outer block 
   IBRION =     -1    ionic relax: 0-MD 1-quasi-New 2-CG
   NFREE  =      0    steps in history (QN), initial steepest desc. (CG)
   ISIF   =      0    stress and relaxation
   IWAVPR =     10    prediction:  0-non 1-charg 2-wave 3-comb
   ISYM   =      2    0-nonsym 1-usesym 2-fastsym
   LCORR  =      T    Harris-Foulkes like correction to forces

   POTIM  = 0.5000    time-step for ionic-motion
   TEIN   =    0.0    initial temperature
   TEBEG  =    0.0;   TEEND  =   0.0 temperature during run
   SMASS  =  -3.00    Nose mass-parameter (am)
   estimated Nose-frequenzy (Omega)   =  0.10E-29 period in steps =****** mass=  -0.908E-27a.u.
   SCALEE = 1.0000    scale energy and forces
   NPACO  =    256;   APACO  = 16.0  distance and # of slots for P.C.
   PSTRESS=    0.0 pullay stress

  Mass of Ions in am
   POMASS =  69.72 14.00
  Ionic Valenz
   ZVAL   =  13.00  5.00
  Atomic Wigner-Seitz radii
   RWIGS  =  -1.00 -1.00
  virtual crystal weights 
   VCA    =   1.00  1.00
   NELECT =     281.0000    total number of electrons
   NUPDOWN=      -1.0000    fix difference up-down

 DOS related values:
   EMIN   =  10.00;   EMAX   =-10.00  energy-range for DOS
   EFERMI =   0.00
   ISMEAR =     0;   SIGMA  =   0.01  broadening in eV -4-tet -1-fermi 0-gaus

 Electronic relaxation 2 (details)
   IALGO  =     38    algorithm
   LDIAG  =      T    sub-space diagonalisation (order eigenvalues)
   LSUBROT=      F    optimize rotation matrix (better conditioning)
   TURBO    =      0    0=normal 1=particle mesh
   IRESTART =      0    0=no restart 2=restart with 2 vectors
   NREBOOT  =      0    no. of reboots
   NMIN     =      0    reboot dimension
   EREF     =   0.00    reference energy to select bands
   IMIX   =      4    mixing-type and parameters
     AMIX     =   0.40;   BMIX     =  1.00
     AMIX_MAG =   1.60;   BMIX_MAG =  1.00
     AMIN     =   0.10
     WC   =   100.;   INIMIX=   1;  MIXPRE=   1;  MAXMIX= -45

 Intra band minimization:
   WEIMIN = 0.0000     energy-eigenvalue tresh-hold
   EBREAK =  0.15E-06  absolut break condition
   DEPER  =   0.30     relativ break condition  

   TIME   =   0.40     timestep for ELM

  volume/ion in A,a.u.               =      11.40        76.94
  Fermi-wavevector in a.u.,A,eV,Ry     =   1.516578  2.865917 31.293518  2.300009
  Thomas-Fermi vector in A             =   2.625949
 
 Write flags
   LWAVE        =      F    write WAVECAR
   LDOWNSAMPLE  =      F    k-point downsampling of WAVECAR
   LCHARG       =      T    write CHGCAR
   LVTOT        =      T    write LOCPOT, total local potential
   LVHAR        =      F    write LOCPOT, Hartree potential only
   LELF         =      F    write electronic localiz. function (ELF)
   LORBIT       =      0    0 simple, 1 ext, 2 COOP (PROOUT), +10 PAW based schemes


 Dipole corrections
   LMONO  =      F    monopole corrections only (constant potential shift)
   LDIPOL =      F    correct potential (dipole corrections)
   IDIPOL =      0    1-x, 2-y, 3-z, 4-all directions 
   EPSILON=  1.0000000 bulk dielectric constant

 Exchange correlation treatment:
   GGA     =    --    GGA type
   LEXCH   =     8    internal setting for exchange type
   VOSKOWN=      0    Vosko Wilk Nusair interpolation
   LHFCALC =     F    Hartree Fock is set to
   LHFONE  =     F    Hartree Fock one center treatment
   AEXX    =    0.0000 exact exchange contribution

 Linear response parameters
   LEPSILON=     F    determine dielectric tensor
   LRPA    =     F    only Hartree local field effects (RPA)
   LNABLA  =     F    use nabla operator in PAW spheres
   LVEL    =     F    velocity operator in full k-point grid
   LINTERFAST=   F  fast interpolation
   KINTER  =     0    interpolate to denser k-point grid
   CSHIFT  =0.1000    complex shift for real part using Kramers Kronig
   OMEGAMAX=  -1.0    maximum frequency
   DEG_THRESHOLD= 0.2000000E-02 threshold for treating states as degnerate
   RTIME   =   -0.100 relaxation time in fs
  (WPLASMAI=    0.000 imaginary part of plasma frequency in eV, 0.658/RTIME)
   DFIELD  = 0.0000000 0.0000000 0.0000000 field for delta impulse in time
 
 Orbital magnetization related:
   ORBITALMAG=     F  switch on orbital magnetization
   LCHIMAG   =     F  perturbation theory with respect to B field
   DQ        =  0.001000  dq finite difference perturbation B field
   LLRAUG    =     F  two centre corrections for induced B field



--------------------------------------------------------------------------------------------------------


 Static calculation
 charge density and potential will be updated during run
 non-spin polarized calculation
 Variant of blocked Davidson
 Davidson routine will perform the subspace rotation
 perform sub-space diagonalisation
    after iterative eigenvector-optimisation
 modified Broyden-mixing scheme, WC =      100.0
 initial mixing is a Kerker type mixing with AMIX =  0.4000 and BMIX =      1.0000
 Hartree-type preconditioning will be used
 using additional bands           27
 reciprocal scheme for non local part
 use partial core corrections
 calculate Harris-corrections to forces 
   (improved forces if not selfconsistent)
 use gradient corrections 
 use of overlap-Matrix (Vanderbilt PP)
 Gauss-broadening in eV      SIGMA  =   0.01


--------------------------------------------------------------------------------------------------------


  energy-cutoff  :      550.00
  volume of cell :      353.46
      direct lattice vectors                 reciprocal lattice vectors
     6.303928400  0.000000000  0.000000000     0.158631243  0.000000000  0.000000000
     0.000000000  5.459364400  0.000000000     0.000000000  0.183171506  0.000000000
     0.000000000  0.000000000 10.270302800     0.000000000  0.000000000  0.097368113

  length of vectors
     6.303928400  5.459364400 10.270302800     0.158631243  0.183171506  0.097368113


 
 k-points in units of 2pi/SCALE and weight: automatic mesh                          
   0.01982891  0.02289644  0.02434203       0.062
   0.05948672  0.02289644  0.02434203       0.062
  -0.05948672  0.02289644  0.02434203       0.062
  -0.01982891  0.02289644  0.02434203       0.062
   0.01982891  0.06868931  0.02434203       0.062
   0.05948672  0.06868931  0.02434203       0.062
  -0.05948672  0.06868931  0.02434203       0.062
  -0.01982891  0.06868931  0.02434203       0.062
   0.01982891 -0.06868931  0.02434203       0.062
   0.05948672 -0.06868931  0.02434203       0.062
  -0.05948672 -0.06868931  0.02434203       0.062
  -0.01982891 -0.06868931  0.02434203       0.062
   0.01982891 -0.02289644  0.02434203       0.062
   0.05948672 -0.02289644  0.02434203       0.062
  -0.05948672 -0.02289644  0.02434203       0.062
  -0.01982891 -0.02289644  0.02434203       0.062
 
 k-points in reciprocal lattice and weights: automatic mesh                          
   0.12500000  0.12500000  0.25000000       0.062
   0.37500000  0.12500000  0.25000000       0.062
  -0.37500000  0.12500000  0.25000000       0.062
  -0.12500000  0.12500000  0.25000000       0.062
   0.12500000  0.37500000  0.25000000       0.062
   0.37500000  0.37500000  0.25000000       0.062
  -0.37500000  0.37500000  0.25000000       0.062
  -0.12500000  0.37500000  0.25000000       0.062
   0.12500000 -0.37500000  0.25000000       0.062
   0.37500000 -0.37500000  0.25000000       0.062
  -0.37500000 -0.37500000  0.25000000       0.062
  -0.12500000 -0.37500000  0.25000000       0.062
   0.12500000 -0.12500000  0.25000000       0.062
   0.37500000 -0.12500000  0.25000000       0.062
  -0.37500000 -0.12500000  0.25000000       0.062
  -0.12500000 -0.12500000  0.25000000       0.062
 
 position of ions in fractional coordinates (direct lattice) 
   0.24450468  0.17691473  0.24453125
   0.74166769  0.17423842  0.25474322
   0.00255622  0.67578196  0.24415444
   0.49760400  0.66706850  0.25192928
   0.01710933  0.33082606  0.49602043
   0.50541183  0.33581015  0.50335420
   0.24814844  0.82804145  0.50335127
   0.74680734  0.81455270  0.50483516
   0.24632418  0.15944310  0.75315890
   0.74730861  0.15173250  0.74816879
   0.00533808  0.64622175  0.74840247
   0.50032294  0.65851072  0.77320018
   0.99160194  0.32882949  0.00149920
   0.49014357  0.37764103  0.99011686
   0.30127722  0.81361120  0.98654345
   0.72091396  0.83617609  0.99267765
   0.98995848  0.33860169  0.18585333
   0.49445359  0.34133644  0.18496144
   0.26421303  0.83054174  0.17896941
   0.73393124  0.84513318  0.18250874
   0.26076914  0.15298411  0.43575541
   0.75511962  0.16525330  0.44112916
   0.00273498  0.65141832  0.43647496
   0.50001361  0.66810708  0.44129468
   0.00266554  0.31543049  0.68046582
   0.49488982  0.33192692  0.69714303
   0.25564694  0.82774105  0.69391820
   0.74768298  0.80612315  0.69175176
   0.24442378  0.16240462  0.94362651
   0.73942147  0.18466802  0.93142921
   0.00762090  0.65732927  0.94652419
 
 position of ions in cartesian coordinates  (Angst):
   1.54134000  0.96584200  2.51141000
   4.67542000  0.95123100  2.61629000
   0.01611420  3.68934000  2.50754000
   3.13686000  3.64177000  2.58739000
   0.10785600  1.80610000  5.09428000
   3.18608000  1.83331000  5.16960000
   1.56431000  4.52058000  5.16957000
   4.70782000  4.44694000  5.18481000
   1.55281000  0.87045800  7.73517000
   4.71098000  0.82836300  7.68392000
   0.03365090  3.52796000  7.68632000
   3.15400000  3.59505000  7.94100000
   6.25098760  1.79520000  0.01539720
   3.08983000  2.06168000 10.16880000
   1.89923000  4.44180000 10.13210000
   4.54459000  4.56499000 10.19510000
   6.24062740  1.84855000  1.90877000
   3.11700000  1.86348000  1.89961000
   1.66558000  4.53423000  1.83807000
   4.62665000  4.61389000  1.87442000
   1.64387000  0.83519600  4.47534000
   4.76022000  0.90217800  4.53053000
   0.01724110  3.55633000  4.48273000
   3.15205000  3.64744000  4.53223000
   0.01680340  1.72205000  6.98859000
   3.11975000  1.81211000  7.15987000
   1.61158000  4.51894000  7.12675000
   4.71334000  4.40092000  7.10450000
   1.54083000  0.88662600  9.69133000
   4.66126000  1.00817000  9.56606000
   0.04804160  3.58860000  9.72109000
 


--------------------------------------------------------------------------------------------------------


 k-point  1 :   0.1250 0.1250 0.2500  plane waves:   10349
 k-point  2 :   0.3750 0.1250 0.2500  plane waves:   10374
 k-point  3 :  -0.3750 0.1250 0.2500  plane waves:   10374
 k-point  4 :  -0.1250 0.1250 0.2500  plane waves:   10349
 k-point  5 :   0.1250 0.3750 0.2500  plane waves:   10353
 k-point  6 :   0.3750 0.3750 0.2500  plane waves:   10341
 k-point  7 :  -0.3750 0.3750 0.2500  plane waves:   10341
 k-point  8 :  -0.1250 0.3750 0.2500  plane waves:   10353
 k-point  9 :   0.1250-0.3750 0.2500  plane waves:   10353
 k-point 10 :   0.3750-0.3750 0.2500  plane waves:   10341
 k-point 11 :  -0.3750-0.3750 0.2500  plane waves:   10341
 k-point 12 :  -0.1250-0.3750 0.2500  plane waves:   10353
 k-point 13 :   0.1250-0.1250 0.2500  plane waves:   10349
 k-point 14 :   0.3750-0.1250 0.2500  plane waves:   10374
 k-point 15 :  -0.3750-0.1250 0.2500  plane waves:   10374
 k-point 16 :  -0.1250-0.1250 0.2500  plane waves:   10349

 maximum and minimum number of plane-waves per node :      1174     1130

 maximum number of plane-waves:     10374
 maximum index in each direction: 
   IXMAX=   12   IYMAX=   10   IZMAX=   19
   IXMIN=  -12   IYMIN=  -10   IZMIN=  -19


 parallel 3D FFT for wavefunctions:
    minimum data exchange during FFTs selected (reduces bandwidth)
 parallel 3D FFT for charge:
    minimum data exchange during FFTs selected (reduces bandwidth)


 total amount of memory used by VASP MPI-rank0    54108. kBytes
=======================================================================

   base      :      30000. kBytes
   nonl-proj :       5941. kBytes
   fftplans  :       1943. kBytes
   grid      :       3088. kBytes
   one-center:         62. kBytes
   wavefun   :      13074. kBytes
 
     INWAV:  cpu time    0.0000: real time    0.0000
 Broyden mixing: mesh for mixing (old mesh)
   NGX = 25   NGY = 21   NGZ = 39
  (NGX  = 96   NGY  = 84   NGZ  =160)
  gives a total of  20475 points

 initial charge density was supplied:
 charge density of overlapping atoms calculated
 number of electron     283.0000000 magnetization 
 keeping initial charge density in first step


--------------------------------------------------------------------------------------------------------


 Maximum index for augmentation-charges          803 (set IRDMAX)


--------------------------------------------------------------------------------------------------------


 First call to EWALD:  gamma=   0.251
 Maximum number of real-space cells 3x 3x 2
 Maximum number of reciprocal cells 3x 2x 4

    FEWALD:  cpu time    0.0040: real time    0.0013


--------------------------------------- Iteration      1(   1)  ---------------------------------------


    POTLOK:  cpu time    0.0160: real time    0.0235
    SETDIJ:  cpu time    0.0040: real time    0.0038
     EDDAV:  cpu time    3.0360: real time    3.0352
       DOS:  cpu time    0.0000: real time    0.0009
    --------------------------------------------
      LOOP:  cpu time    3.0560: real time    3.0634

 eigenvalue-minimisations  :  5648
 total energy-change (2. order) : 0.4887814E+04  (-0.1080676E+05)
 number of electron     283.0000000 magnetization 
 augmentation part      283.0000000 magnetization 

 Free energy of the ion-electron system (eV)
  ---------------------------------------------------
  alpha Z        PSCENC =      1589.50695893
  Ewald energy   TEWEN  =    -25316.72769601
  -Hartree energ DENC   =     -9100.72162569
  -exchange      EXHF   =         0.00000000
  -V(xc)+E(xc)   XCENC  =      1011.65884029
  PAW double counting   =     28724.48257400   -34079.19590656
  entropy T*S    EENTRO =        -0.00000001
  eigenvalues    EBANDS =      3709.51861723
  atomic energy  EATOM  =     38349.29185498
  Solvation  Ediel_sol  =         0.00000000
  ---------------------------------------------------
  free energy    TOTEN  =      4887.81361717 eV

  energy without entropy =     4887.81361718  energy(sigma->0) =     4887.81361718


--------------------------------------------------------------------------------------------------------




--------------------------------------- Iteration      1(   2)  ---------------------------------------


     EDDAV:  cpu time    2.9160: real time    2.9243
       DOS:  cpu time    0.0000: real time    0.0011
    --------------------------------------------
      LOOP:  cpu time    2.9160: real time    2.9254

 eigenvalue-minimisations  :  5376
 total energy-change (2. order) :-0.3786870E+04  (-0.3573682E+04)
 number of electron     283.0000000 magnetization 
 augmentation part      283.0000000 magnetization 

 Free energy of the ion-electron system (eV)
  ---------------------------------------------------
  alpha Z        PSCENC =      1589.50695893
  Ewald energy   TEWEN  =    -25316.72769601
  -Hartree energ DENC   =     -9100.72162569
  -exchange      EXHF   =         0.00000000
  -V(xc)+E(xc)   XCENC  =      1011.65884029
  PAW double counting   =     28724.48257400   -34079.19590656
  entropy T*S    EENTRO =        -0.00000709
  eigenvalues    EBANDS =       -77.35144388
  atomic energy  EATOM  =     38349.29185498
  Solvation  Ediel_sol  =         0.00000000
  ---------------------------------------------------
  free energy    TOTEN  =      1100.94354898 eV

  energy without entropy =     1100.94355607  energy(sigma->0) =     1100.94355253


--------------------------------------------------------------------------------------------------------




--------------------------------------- Iteration      1(   3)  ---------------------------------------


     EDDAV:  cpu time    3.3160: real time    3.3236
       DOS:  cpu time    0.0000: real time    0.0005
    --------------------------------------------
      LOOP:  cpu time    3.3160: real time    3.3241

 eigenvalue-minimisations  :  6408
 total energy-change (2. order) :-0.1143448E+04  (-0.1076234E+04)
 number of electron     283.0000000 magnetization 
 augmentation part      283.0000000 magnetization 

 Free energy of the ion-electron system (eV)
  ---------------------------------------------------
  alpha Z        PSCENC =      1589.50695893
  Ewald energy   TEWEN  =    -25316.72769601
  -Hartree energ DENC   =     -9100.72162569
  -exchange      EXHF   =         0.00000000
  -V(xc)+E(xc)   XCENC  =      1011.65884029
  PAW double counting   =     28724.48257400   -34079.19590656
  entropy T*S    EENTRO =        -0.00000000
  eigenvalues    EBANDS =     -1220.79903611
  atomic energy  EATOM  =     38349.29185498
  Solvation  Ediel_sol  =         0.00000000
  ---------------------------------------------------
  free energy    TOTEN  =       -42.50403616 eV

  energy without entropy =      -42.50403616  energy(sigma->0) =      -42.50403616


--------------------------------------------------------------------------------------------------------




--------------------------------------- Iteration      1(   4)  ---------------------------------------


     EDDAV:  cpu time    3.2120: real time    3.2211
       DOS:  cpu time    0.0000: real time    0.0005
    --------------------------------------------
      LOOP:  cpu time    3.2120: real time    3.2216

 eigenvalue-minimisations  :  6112
 total energy-change (2. order) :-0.1607491E+03  (-0.1552789E+03)
 number of electron     283.0000000 magnetization 
 augmentation part      283.0000000 magnetization 

 Free energy of the ion-electron system (eV)
  ---------------------------------------------------
  alpha Z        PSCENC =      1589.50695893
  Ewald energy   TEWEN  =    -25316.72769601
  -Hartree energ DENC   =     -9100.72162569
  -exchange      EXHF   =         0.00000000
  -V(xc)+E(xc)   XCENC  =      1011.65884029
  PAW double counting   =     28724.48257400   -34079.19590656
  entropy T*S    EENTRO =        -0.00000000
  eigenvalues    EBANDS =     -1381.54814670
  atomic energy  EATOM  =     38349.29185498
  Solvation  Ediel_sol  =         0.00000000
  ---------------------------------------------------
  free energy    TOTEN  =      -203.25314675 eV

  energy without entropy =     -203.25314675  energy(sigma->0) =     -203.25314675


--------------------------------------------------------------------------------------------------------




--------------------------------------- Iteration      1(   5)  ---------------------------------------


     EDDAV:  cpu time    4.1800: real time    4.1935
       DOS:  cpu time    0.0000: real time    0.0005
    CHARGE:  cpu time    0.1200: real time    0.1188
    MIXING:  cpu time    0.0000: real time    0.0010
    --------------------------------------------
      LOOP:  cpu time    4.3000: real time    4.3139

 eigenvalue-minimisations  :  8552
 total energy-change (2. order) :-0.1826121E+02  (-0.1809436E+02)
 number of electron     281.0000019 magnetization 
 augmentation part      141.0534227 magnetization 

 Broyden mixing:
  rms(total) = 0.29594E+01    rms(broyden)= 0.29570E+01
  rms(prec ) = 0.41902E+01
  weight for this iteration     100.00

 Free energy of the ion-electron system (eV)
  ---------------------------------------------------
  alpha Z        PSCENC =      1589.50695893
  Ewald energy   TEWEN  =    -25316.72769601
  -Hartree energ DENC   =     -9100.72162569
  -exchange      EXHF   =         0.00000000
  -V(xc)+E(xc)   XCENC  =      1011.65884029
  PAW double counting   =     28724.48257400   -34079.19590656
  entropy T*S    EENTRO =        -0.00000000
  eigenvalues    EBANDS =     -1399.80935496
  atomic energy  EATOM  =     38349.29185498
  Solvation  Ediel_sol  =         0.00000000
  ---------------------------------------------------
  free energy    TOTEN  =      -221.51435501 eV

  energy without entropy =     -221.51435501  energy(sigma->0) =     -221.51435501


--------------------------------------------------------------------------------------------------------




--------------------------------------- Iteration      1(   6)  ---------------------------------------


    POTLOK:  cpu time    0.0160: real time    0.0242
    SETDIJ:  cpu time    0.0040: real time    0.0034
     EDDAV:  cpu time    4.2960: real time    4.2957
       DOS:  cpu time    0.0000: real time    0.0013
    CHARGE:  cpu time    0.1200: real time    0.1197
    MIXING:  cpu time    0.0000: real time    0.0008
    --------------------------------------------
      LOOP:  cpu time    4.4360: real time    4.4453

 eigenvalue-minimisations  :  8816
 total energy-change (2. order) : 0.3042794E+02  (-0.1247506E+02)
 number of electron     281.0000018 magnetization 
 augmentation part      138.6865946 magnetization 

 Broyden mixing:
  rms(total) = 0.81197E+00    rms(broyden)= 0.81137E+00
  rms(prec ) = 0.94947E+00
  weight for this iteration     100.00

 eigenvalues of (default mixing * dielectric matrix)
  average eigenvalue GAMMA=   0.9405
  0.9405

 Free energy of the ion-electron system (eV)
  ---------------------------------------------------
  alpha Z        PSCENC =      1589.50695893
  Ewald energy   TEWEN  =    -25316.72769601
  -Hartree energ DENC   =     -9145.40077794
  -exchange      EXHF   =         0.00000000
  -V(xc)+E(xc)   XCENC  =      1014.15852567
  PAW double counting   =     30537.03026713   -35869.09494789
  entropy T*S    EENTRO =        -0.00130294
  eigenvalues    EBANDS =     -1349.84929513
  atomic energy  EATOM  =     38349.29185498
  Solvation  Ediel_sol  =         0.00000000
  ---------------------------------------------------
  free energy    TOTEN  =      -191.08641319 eV

  energy without entropy =     -191.08511025  energy(sigma->0) =     -191.08576172


--------------------------------------------------------------------------------------------------------




--------------------------------------- Iteration      1(   7)  ---------------------------------------


    POTLOK:  cpu time    0.0160: real time    0.0262
    SETDIJ:  cpu time    0.0040: real time    0.0033
     EDDAV:  cpu time    3.2640: real time    3.2672
       DOS:  cpu time    0.0040: real time    0.0013
    CHARGE:  cpu time    0.1200: real time    0.1198
    MIXING:  cpu time    0.0000: real time    0.0007
    --------------------------------------------
      LOOP:  cpu time    3.4080: real time    3.4185

 eigenvalue-minimisations  :  6264
 total energy-change (2. order) :-0.1900051E+01  (-0.2313268E+01)
 number of electron     281.0000018 magnetization 
 augmentation part      138.7981424 magnetization 

 Broyden mixing:
  rms(total) = 0.73819E+00    rms(broyden)= 0.73818E+00
  rms(prec ) = 0.81515E+00
  weight for this iteration     100.00

 eigenvalues of (default mixing * dielectric matrix)
  average eigenvalue GAMMA=   1.0856
  1.0856  1.0856

 Free energy of the ion-electron system (eV)
  ---------------------------------------------------
  alpha Z        PSCENC =      1589.50695893
  Ewald energy   TEWEN  =    -25316.72769601
  -Hartree energ DENC   =     -9124.35238464
  -exchange      EXHF   =         0.00000000
  -V(xc)+E(xc)   XCENC  =      1013.27565749
  PAW double counting   =     32003.78169643   -37357.58346725
  entropy T*S    EENTRO =        -0.00029791
  eigenvalues    EBANDS =     -1350.17878646
  atomic energy  EATOM  =     38349.29185498
  Solvation  Ediel_sol  =         0.00000000
  ---------------------------------------------------
  free energy    TOTEN  =      -192.98646445 eV

  energy without entropy =     -192.98616653  energy(sigma->0) =     -192.98631549


--------------------------------------------------------------------------------------------------------




--------------------------------------- Iteration      1(   8)  ---------------------------------------


    POTLOK:  cpu time    0.0160: real time    0.0235
    SETDIJ:  cpu time    0.0000: real time    0.0033
     EDDAV:  cpu time    3.3680: real time    3.3647
       DOS:  cpu time    0.0000: real time    0.0012
    CHARGE:  cpu time    0.1200: real time    0.1197
    MIXING:  cpu time    0.0000: real time    0.0007
    --------------------------------------------
      LOOP:  cpu time    3.5040: real time    3.5132

 eigenvalue-minimisations  :  6512
 total energy-change (2. order) : 0.1014778E+00  (-0.3210750E+00)
 number of electron     281.0000018 magnetization 
 augmentation part      138.7480170 magnetization 

 Broyden mixing:
  rms(total) = 0.39129E+00    rms(broyden)= 0.39129E+00
  rms(prec ) = 0.43162E+00
  weight for this iteration     100.00

 eigenvalues of (default mixing * dielectric matrix)
  average eigenvalue GAMMA=   1.5181
  2.6507  0.9518  0.9518

 Free energy of the ion-electron system (eV)
  ---------------------------------------------------
  alpha Z        PSCENC =      1589.50695893
  Ewald energy   TEWEN  =    -25316.72769601
  -Hartree energ DENC   =     -9119.92894289
  -exchange      EXHF   =         0.00000000
  -V(xc)+E(xc)   XCENC  =      1012.38880369
  PAW double counting   =     33438.40747673   -38827.73552493
  entropy T*S    EENTRO =        -0.00052052
  eigenvalues    EBANDS =     -1318.08739658
  atomic energy  EATOM  =     38349.29185498
  Solvation  Ediel_sol  =         0.00000000
  ---------------------------------------------------
  free energy    TOTEN  =      -192.88498660 eV

  energy without entropy =     -192.88446608  energy(sigma->0) =     -192.88472634


--------------------------------------------------------------------------------------------------------




--------------------------------------- Iteration      1(   9)  ---------------------------------------


    POTLOK:  cpu time    0.0160: real time    0.0248
    SETDIJ:  cpu time    0.0000: real time    0.0033
     EDDAV:  cpu time    3.9440: real time    3.9419
       DOS:  cpu time    0.0000: real time    0.0013
    CHARGE:  cpu time    0.1200: real time    0.1203
    MIXING:  cpu time    0.0040: real time    0.0010
    --------------------------------------------
      LOOP:  cpu time    4.0840: real time    4.0924

 eigenvalue-minimisations  :  7936
 total energy-change (2. order) :-0.1150199E+00  (-0.1434797E+00)
 number of electron     281.0000018 magnetization 
 augmentation part      138.8358155 magnetization 

 Broyden mixing:
  rms(total) = 0.19479E+00    rms(broyden)= 0.19476E+00
  rms(prec ) = 0.25225E+00
  weight for this iteration     100.00

 eigenvalues of (default mixing * dielectric matrix)
  average eigenvalue GAMMA=   1.3348
  2.5679  0.8102  0.9807  0.9807

 Free energy of the ion-electron system (eV)
  ---------------------------------------------------
  alpha Z        PSCENC =      1589.50695893
  Ewald energy   TEWEN  =    -25316.72769601
  -Hartree energ DENC   =     -9105.89073864
  -exchange      EXHF   =         0.00000000
  -V(xc)+E(xc)   XCENC  =      1011.49685331
  PAW double counting   =     35467.81689138   -40883.91213250
  entropy T*S    EENTRO =        -0.00013856
  eigenvalues    EBANDS =     -1304.58185940
  atomic energy  EATOM  =     38349.29185498
  Solvation  Ediel_sol  =         0.00000000
  ---------------------------------------------------
  free energy    TOTEN  =      -193.00000650 eV

  energy without entropy =     -192.99986794  energy(sigma->0) =     -192.99993722


--------------------------------------------------------------------------------------------------------




--------------------------------------- Iteration      1(  10)  ---------------------------------------


    POTLOK:  cpu time    0.0120: real time    0.0218
    SETDIJ:  cpu time    0.0040: real time    0.0033
     EDDAV:  cpu time    3.7720: real time    3.7730
       DOS:  cpu time    0.0040: real time    0.0012
    CHARGE:  cpu time    0.1160: real time    0.1198
    MIXING:  cpu time    0.0040: real time    0.0008
    --------------------------------------------
      LOOP:  cpu time    3.9120: real time    3.9200

 eigenvalue-minimisations  :  7512
 total energy-change (2. order) : 0.8434125E-01  (-0.4741086E-01)
 number of electron     281.0000018 magnetization 
 augmentation part      138.7553954 magnetization 

 Broyden mixing:
  rms(total) = 0.65170E-01    rms(broyden)= 0.65156E-01
  rms(prec ) = 0.75109E-01
  weight for this iteration     100.00

 eigenvalues of (default mixing * dielectric matrix)
  average eigenvalue GAMMA=   1.2344
  2.4903  1.0204  1.0204  0.9724  0.6686

 Free energy of the ion-electron system (eV)
  ---------------------------------------------------
  alpha Z        PSCENC =      1589.50695893
  Ewald energy   TEWEN  =    -25316.72769601
  -Hartree energ DENC   =     -9108.08918746
  -exchange      EXHF   =         0.00000000
  -V(xc)+E(xc)   XCENC  =      1011.95918245
  PAW double counting   =     35304.47854014   -40713.71659263
  entropy T*S    EENTRO =        -0.00029767
  eigenvalues    EBANDS =     -1309.61842799
  atomic energy  EATOM  =     38349.29185498
  Solvation  Ediel_sol  =         0.00000000
  ---------------------------------------------------
  free energy    TOTEN  =      -192.91566525 eV

  energy without entropy =     -192.91536758  energy(sigma->0) =     -192.91551642


--------------------------------------------------------------------------------------------------------




--------------------------------------- Iteration      1(  11)  ---------------------------------------


    POTLOK:  cpu time    0.0120: real time    0.0233
    SETDIJ:  cpu time    0.0040: real time    0.0034
     EDDAV:  cpu time    3.5680: real time    3.5685
       DOS:  cpu time    0.0040: real time    0.0013
    CHARGE:  cpu time    0.1160: real time    0.1196
    MIXING:  cpu time    0.0040: real time    0.0008
    --------------------------------------------
      LOOP:  cpu time    3.7080: real time    3.7169

 eigenvalue-minimisations  :  6960
 total energy-change (2. order) :-0.8661044E-02  (-0.1447648E-01)
 number of electron     281.0000018 magnetization 
 augmentation part      138.7365066 magnetization 

 Broyden mixing:
  rms(total) = 0.34959E-01    rms(broyden)= 0.34953E-01
  rms(prec ) = 0.37431E-01
  weight for this iteration     100.00

 eigenvalues of (default mixing * dielectric matrix)
  average eigenvalue GAMMA=   1.1644
  2.4870  1.0669  1.0669  1.0569  0.6544  0.6544

 Free energy of the ion-electron system (eV)
  ---------------------------------------------------
  alpha Z        PSCENC =      1589.50695893
  Ewald energy   TEWEN  =    -25316.72769601
  -Hartree energ DENC   =     -9108.85749256
  -exchange      EXHF   =         0.00000000
  -V(xc)+E(xc)   XCENC  =      1012.03257287
  PAW double counting   =     35218.60055005   -40626.07545500
  entropy T*S    EENTRO =        -0.00037919
  eigenvalues    EBANDS =     -1310.69524037
  atomic energy  EATOM  =     38349.29185498
  Solvation  Ediel_sol  =         0.00000000
  ---------------------------------------------------
  free energy    TOTEN  =      -192.92432630 eV

  energy without entropy =     -192.92394711  energy(sigma->0) =     -192.92413670


--------------------------------------------------------------------------------------------------------




--------------------------------------- Iteration      1(  12)  ---------------------------------------


    POTLOK:  cpu time    0.0120: real time    0.0259
    SETDIJ:  cpu time    0.0040: real time    0.0033
     EDDAV:  cpu time    3.2760: real time    3.2743
       DOS:  cpu time    0.0000: real time    0.0013
    CHARGE:  cpu time    0.1200: real time    0.1197
    MIXING:  cpu time    0.0000: real time    0.0009
    --------------------------------------------
      LOOP:  cpu time    3.4120: real time    3.4253

 eigenvalue-minimisations  :  6280
 total energy-change (2. order) :-0.2241608E-02  (-0.1911495E-02)
 number of electron     281.0000018 magnetization 
 augmentation part      138.7351697 magnetization 

 Broyden mixing:
  rms(total) = 0.24649E-01    rms(broyden)= 0.24649E-01
  rms(prec ) = 0.27808E-01
  weight for this iteration     100.00

 eigenvalues of (default mixing * dielectric matrix)
  average eigenvalue GAMMA=   1.2571
  2.4407  1.7189  1.0748  1.0748  0.9584  0.9584  0.5740

 Free energy of the ion-electron system (eV)
  ---------------------------------------------------
  alpha Z        PSCENC =      1589.50695893
  Ewald energy   TEWEN  =    -25316.72769601
  -Hartree energ DENC   =     -9109.01386180
  -exchange      EXHF   =         0.00000000
  -V(xc)+E(xc)   XCENC  =      1012.00734167
  PAW double counting   =     35208.29413460   -40615.73774412
  entropy T*S    EENTRO =        -0.00034541
  eigenvalues    EBANDS =     -1310.54721076
  atomic energy  EATOM  =     38349.29185498
  Solvation  Ediel_sol  =         0.00000000
  ---------------------------------------------------
  free energy    TOTEN  =      -192.92656790 eV

  energy without entropy =     -192.92622250  energy(sigma->0) =     -192.92639520


--------------------------------------------------------------------------------------------------------




--------------------------------------- Iteration      1(  13)  ---------------------------------------


    POTLOK:  cpu time    0.0160: real time    0.0208
    SETDIJ:  cpu time    0.0040: real time    0.0033
     EDDAV:  cpu time    3.3880: real time    3.3900
       DOS:  cpu time    0.0000: real time    0.0013
    CHARGE:  cpu time    0.1200: real time    0.1195
    MIXING:  cpu time    0.0040: real time    0.0009
    --------------------------------------------
      LOOP:  cpu time    3.5320: real time    3.5358

 eigenvalue-minimisations  :  6560
 total energy-change (2. order) : 0.8015486E-04  (-0.4888891E-03)
 number of electron     281.0000018 magnetization 
 augmentation part      138.7384451 magnetization 

 Broyden mixing:
  rms(total) = 0.65468E-02    rms(broyden)= 0.65462E-02
  rms(prec ) = 0.86364E-02
  weight for this iteration     100.00

 eigenvalues of (default mixing * dielectric matrix)
  average eigenvalue GAMMA=   1.2948
  2.5768  2.5768  1.0236  1.0236  0.9160  0.8107  0.8107  0.6201

 Free energy of the ion-electron system (eV)
  ---------------------------------------------------
  alpha Z        PSCENC =      1589.50695893
  Ewald energy   TEWEN  =    -25316.72769601
  -Hartree energ DENC   =     -9109.23789627
  -exchange      EXHF   =         0.00000000
  -V(xc)+E(xc)   XCENC  =      1012.01288267
  PAW double counting   =     35185.04442284   -40591.02892731
  entropy T*S    EENTRO =        -0.00030504
  eigenvalues    EBANDS =     -1311.78778256
  atomic energy  EATOM  =     38349.29185498
  Solvation  Ediel_sol  =         0.00000000
  ---------------------------------------------------
  free energy    TOTEN  =      -192.92648775 eV

  energy without entropy =     -192.92618271  energy(sigma->0) =     -192.92633523


--------------------------------------------------------------------------------------------------------




--------------------------------------- Iteration      1(  14)  ---------------------------------------


    POTLOK:  cpu time    0.0120: real time    0.0250
    SETDIJ:  cpu time    0.0040: real time    0.0033
     EDDAV:  cpu time    4.0280: real time    4.0281
       DOS:  cpu time    0.0000: real time    0.0013
    CHARGE:  cpu time    0.1200: real time    0.1197
    MIXING:  cpu time    0.0040: real time    0.0010
    --------------------------------------------
      LOOP:  cpu time    4.1680: real time    4.1785

 eigenvalue-minimisations  :  8152
 total energy-change (2. order) :-0.3696218E-03  (-0.4017098E-03)
 number of electron     281.0000018 magnetization 
 augmentation part      138.7391888 magnetization 

 Broyden mixing:
  rms(total) = 0.55667E-02    rms(broyden)= 0.55662E-02
  rms(prec ) = 0.63280E-02
  weight for this iteration     100.00

 eigenvalues of (default mixing * dielectric matrix)
  average eigenvalue GAMMA=   1.2093
  2.5318  2.5318  1.0235  1.0235  0.8479  0.8479  0.8540  0.6952  0.5282

 Free energy of the ion-electron system (eV)
  ---------------------------------------------------
  alpha Z        PSCENC =      1589.50695893
  Ewald energy   TEWEN  =    -25316.72769601
  -Hartree energ DENC   =     -9109.54773506
  -exchange      EXHF   =         0.00000000
  -V(xc)+E(xc)   XCENC  =      1012.02134274
  PAW double counting   =     35179.93417781   -40585.58153282
  entropy T*S    EENTRO =        -0.00031391
  eigenvalues    EBANDS =     -1311.82391404
  atomic energy  EATOM  =     38349.29185498
  Solvation  Ediel_sol  =         0.00000000
  ---------------------------------------------------
  free energy    TOTEN  =      -192.92685737 eV

  energy without entropy =     -192.92654346  energy(sigma->0) =     -192.92670042


--------------------------------------------------------------------------------------------------------




--------------------------------------- Iteration      1(  15)  ---------------------------------------


    POTLOK:  cpu time    0.0120: real time    0.0268
    SETDIJ:  cpu time    0.0040: real time    0.0033
     EDDAV:  cpu time    3.2120: real time    3.2135
       DOS:  cpu time    0.0040: real time    0.0013
    CHARGE:  cpu time    0.1200: real time    0.1202
    MIXING:  cpu time    0.0000: real time    0.0010
    --------------------------------------------
      LOOP:  cpu time    3.3520: real time    3.3661

 eigenvalue-minimisations  :  6120
 total energy-change (2. order) :-0.1020322E-03  (-0.1412048E-03)
 number of electron     281.0000018 magnetization 
 augmentation part      138.7385482 magnetization 

 Broyden mixing:
  rms(total) = 0.45317E-02    rms(broyden)= 0.45317E-02
  rms(prec ) = 0.48895E-02
  weight for this iteration     100.00

 eigenvalues of (default mixing * dielectric matrix)
  average eigenvalue GAMMA=   1.1481
  2.5095  2.5095  1.0425  1.0425  0.8659  0.8659  0.8155  0.7613  0.5341  0.5341

 Free energy of the ion-electron system (eV)
  ---------------------------------------------------
  alpha Z        PSCENC =      1589.50695893
  Ewald energy   TEWEN  =    -25316.72769601
  -Hartree energ DENC   =     -9109.67233762
  -exchange      EXHF   =         0.00000000
  -V(xc)+E(xc)   XCENC  =      1012.02579855
  PAW double counting   =     35182.23246269   -40588.05999947
  entropy T*S    EENTRO =        -0.00031983
  eigenvalues    EBANDS =     -1311.52368162
  atomic energy  EATOM  =     38349.29185498
  Solvation  Ediel_sol  =         0.00000000
  ---------------------------------------------------
  free energy    TOTEN  =      -192.92695940 eV

  energy without entropy =     -192.92663957  energy(sigma->0) =     -192.92679949


--------------------------------------------------------------------------------------------------------




--------------------------------------- Iteration      1(  16)  ---------------------------------------


    POTLOK:  cpu time    0.0160: real time    0.0261
    SETDIJ:  cpu time    0.0000: real time    0.0033
     EDDAV:  cpu time    2.2040: real time    2.2010
       DOS:  cpu time    0.0000: real time    0.0012
    --------------------------------------------
      LOOP:  cpu time    2.2200: real time    2.2317

 eigenvalue-minimisations  :  3456
 total energy-change (2. order) : 0.1859764E-05  (-0.8414106E-05)
 number of electron     281.0000018 magnetization 
 augmentation part      138.7385482 magnetization 

 Free energy of the ion-electron system (eV)
  ---------------------------------------------------
  alpha Z        PSCENC =      1589.50695893
  Ewald energy   TEWEN  =    -25316.72769601
  -Hartree energ DENC   =     -9109.77276995
  -exchange      EXHF   =         0.00000000
  -V(xc)+E(xc)   XCENC  =      1012.03156521
  PAW double counting   =     35184.07412944   -40589.95126220
  entropy T*S    EENTRO =        -0.00032127
  eigenvalues    EBANDS =     -1311.37941669
  atomic energy  EATOM  =     38349.29185498
  Solvation  Ediel_sol  =         0.00000000
  ---------------------------------------------------
  free energy    TOTEN  =      -192.92695754 eV

  energy without entropy =     -192.92663628  energy(sigma->0) =     -192.92679691


--------------------------------------------------------------------------------------------------------




 average (electrostatic) potential at core
  the test charge radii are     1.0314  0.7089
  (the norm of the test charge is              1.0000)
       1 -63.2041       2 -63.1276       3 -63.2692       4 -63.0250       5 -63.0479
       6 -63.2451       7 -63.2234       8 -63.2614       9 -63.0757      10 -63.2227
      11 -63.2078      12 -64.1334      13 -63.0721      14 -64.1901      15 -64.2115
      16 -64.2606      17 -61.9135      18 -62.0742      19 -61.9508      20 -62.0642
      21 -62.0042      22 -61.9299      23 -62.0733      24 -62.0048      25 -61.8577
      26 -62.0570      27 -62.1223      28 -62.1794      29 -62.1587      30 -62.3182
      31 -62.0668
 
 
 
 E-fermi :   5.1178     XC(G=0): -11.7053     alpha+bet :-13.5756


 k-point     1 :       0.1250    0.1250    0.2500
  band No.  band energies     occupation 
      1     -10.4654      2.00000
      2     -10.1665      2.00000
      3      -9.8927      2.00000
      4      -9.7793      2.00000
      5      -9.7648      2.00000
      6      -9.6901      2.00000
      7      -9.6677      2.00000
      8      -9.6397      2.00000
      9      -9.5783      2.00000
     10      -9.5437      2.00000
     11      -9.5010      2.00000
     12      -9.4793      2.00000
     13      -9.4617      2.00000
     14      -9.3815      2.00000
     15      -9.3321      2.00000
     16      -8.8543      2.00000
     17      -8.7745      2.00000
     18      -8.7534      2.00000
     19      -8.7285      2.00000
     20      -8.6864      2.00000
     21      -8.6365      2.00000
     22      -8.6215      2.00000
     23      -8.5962      2.00000
     24      -8.5534      2.00000
     25      -8.5454      2.00000
     26      -8.5344      2.00000
     27      -8.5127      2.00000
     28      -8.4998      2.00000
     29      -8.4380      2.00000
     30      -8.4017      2.00000
     31      -8.3652      2.00000
     32      -8.3443      2.00000
     33      -8.3027      2.00000
     34      -8.2731      2.00000
     35      -8.1427      2.00000
     36      -7.8451      2.00000
     37      -7.8429      2.00000
     38      -7.8061      2.00000
     39      -7.7969      2.00000
     40      -7.7873      2.00000
     41      -7.7786      2.00000
     42      -7.7712      2.00000
     43      -7.7621      2.00000
     44      -7.7512      2.00000
     45      -7.7399      2.00000
     46      -7.7277      2.00000
     47      -7.7218      2.00000
     48      -7.7083      2.00000
     49      -7.7008      2.00000
     50      -7.6951      2.00000
     51      -7.6832      2.00000
     52      -7.6659      2.00000
     53      -7.6555      2.00000
     54      -7.6505      2.00000
     55      -7.6392      2.00000
     56      -7.6312      2.00000
     57      -7.6279      2.00000
     58      -7.6176      2.00000
     59      -7.6117      2.00000
     60      -7.6006      2.00000
     61      -7.5946      2.00000
     62      -7.5907      2.00000
     63      -7.5799      2.00000
     64      -7.5683      2.00000
     65      -7.5661      2.00000
     66      -7.5564      2.00000
     67      -7.5434      2.00000
     68      -7.5359      2.00000
     69      -7.5270      2.00000
     70      -7.5180      2.00000
     71      -7.5137      2.00000
     72      -7.5010      2.00000
     73      -7.4869      2.00000
     74      -7.4732      2.00000
     75      -7.4569      2.00000
     76      -7.4426      2.00000
     77      -7.4344      2.00000
     78      -7.4251      2.00000
     79      -7.4138      2.00000
     80      -7.3963      2.00000
     81      -7.3911      2.00000
     82      -7.3887      2.00000
     83      -7.1857      2.00000
     84      -6.9152      2.00000
     85      -6.6710      2.00000
     86      -6.6205      2.00000
     87      -6.4328      2.00000
     88      -6.3668      2.00000
     89      -6.2593      2.00000
     90      -6.1396      2.00000
     91      -6.0950      2.00000
     92      -5.9840      2.00000
     93      -5.8415      2.00000
     94      -5.7676      2.00000
     95      -5.7391      2.00000
     96      -2.2178      2.00000
     97      -1.1347      2.00000
     98      -0.9852      2.00000
     99      -0.8063      2.00000
    100      -0.7084      2.00000
    101      -0.4755      2.00000
    102      -0.4319      2.00000
    103      -0.3599      2.00000
    104      -0.2666      2.00000
    105      -0.2275      2.00000
    106       0.2609      2.00000
    107       0.3884      2.00000
    108       0.5435      2.00000
    109       0.8062      2.00000
    110       1.1267      2.00000
    111       1.3778      2.00000
    112       1.5229      2.00000
    113       1.6354      2.00000
    114       1.6896      2.00000
    115       2.1719      2.00000
    116       2.2541      2.00000
    117       2.4760      2.00000
    118       2.6165      2.00000
    119       2.8068      2.00000
    120       2.9182      2.00000
    121       3.1216      2.00000
    122       3.1789      2.00000
    123       3.3093      2.00000
    124       3.3388      2.00000
    125       3.4159      2.00000
    126       3.5226      2.00000
    127       3.6133      2.00000
    128       3.7437      2.00000
    129       3.8539      2.00000
    130       4.0203      2.00000
    131       4.1311      2.00000
    132       4.1543      2.00000
    133       4.2237      2.00000
    134       4.3316      2.00000
    135       4.4034      2.00000
    136       4.5806      2.00000
    137       4.7461      2.00000
    138       4.8928      2.00000
    139       4.9940      2.00000
    140       5.1280      0.15111
    141       5.3224      0.00000
    142       7.2888      0.00000
    143       7.6420      0.00000
    144       8.2823      0.00000
    145       9.0677      0.00000
    146       9.9357      0.00000
    147      10.1804      0.00000
    148      10.4976      0.00000
    149      10.6874      0.00000
    150      10.7739      0.00000
    151      10.9192      0.00000
    152      11.0746      0.00000
    153      11.1727      0.00000
    154      11.2569      0.00000
    155      11.5354      0.00000
    156      11.7204      0.00000
    157      11.8992      0.00000
    158      12.2092      0.00000
    159      12.5441      0.00000
    160      12.6575      0.00000
    161      12.7361      0.00000
    162      12.9832      0.00000
    163      13.1383      0.00000
    164      13.3685      0.00000
    165      13.3968      0.00000
    166      13.5945      0.00000
    167      13.7529      0.00000
    168      14.0430      0.00000

 k-point     2 :       0.3750    0.1250    0.2500
  band No.  band energies     occupation 
      1     -10.2702      2.00000
      2     -10.0472      2.00000
      3      -9.9766      2.00000
      4      -9.8213      2.00000
      5      -9.7916      2.00000
      6      -9.7110      2.00000
      7      -9.6463      2.00000
      8      -9.6391      2.00000
      9      -9.6032      2.00000
     10      -9.5406      2.00000
     11      -9.5174      2.00000
     12      -9.4809      2.00000
     13      -9.4571      2.00000
     14      -9.3460      2.00000
     15      -9.3262      2.00000
     16      -8.8604      2.00000
     17      -8.7758      2.00000
     18      -8.7434      2.00000
     19      -8.7236      2.00000
     20      -8.6953      2.00000
     21      -8.6555      2.00000
     22      -8.6197      2.00000
     23      -8.5980      2.00000
     24      -8.5630      2.00000
     25      -8.5493      2.00000
     26      -8.5350      2.00000
     27      -8.5166      2.00000
     28      -8.5089      2.00000
     29      -8.4941      2.00000
     30      -8.4066      2.00000
     31      -8.3682      2.00000
     32      -8.3443      2.00000
     33      -8.3037      2.00000
     34      -8.2423      2.00000
     35      -8.1230      2.00000
     36      -7.8256      2.00000
     37      -7.8191      2.00000
     38      -7.7990      2.00000
     39      -7.7876      2.00000
     40      -7.7830      2.00000
     41      -7.7757      2.00000
     42      -7.7523      2.00000
     43      -7.7482      2.00000
     44      -7.7352      2.00000
     45      -7.7273      2.00000
     46      -7.7199      2.00000
     47      -7.7105      2.00000
     48      -7.7036      2.00000
     49      -7.6938      2.00000
     50      -7.6884      2.00000
     51      -7.6759      2.00000
     52      -7.6699      2.00000
     53      -7.6589      2.00000
     54      -7.6509      2.00000
     55      -7.6496      2.00000
     56      -7.6458      2.00000
     57      -7.6320      2.00000
     58      -7.6202      2.00000
     59      -7.6113      2.00000
     60      -7.6055      2.00000
     61      -7.5974      2.00000
     62      -7.5872      2.00000
     63      -7.5817      2.00000
     64      -7.5789      2.00000
     65      -7.5690      2.00000
     66      -7.5617      2.00000
     67      -7.5542      2.00000
     68      -7.5466      2.00000
     69      -7.5385      2.00000
     70      -7.5309      2.00000
     71      -7.5173      2.00000
     72      -7.5127      2.00000
     73      -7.4990      2.00000
     74      -7.4809      2.00000
     75      -7.4769      2.00000
     76      -7.4510      2.00000
     77      -7.4443      2.00000
     78      -7.4223      2.00000
     79      -7.4173      2.00000
     80      -7.4072      2.00000
     81      -7.3985      2.00000
     82      -7.3932      2.00000
     83      -7.3575      2.00000
     84      -7.2036      2.00000
     85      -6.9455      2.00000
     86      -6.6762      2.00000
     87      -6.4149      2.00000
     88      -6.2477      2.00000
     89      -6.2017      2.00000
     90      -6.0960      2.00000
     91      -6.0090      2.00000
     92      -5.9665      2.00000
     93      -5.8494      2.00000
     94      -5.7714      2.00000
     95      -5.7063      2.00000
     96      -2.2300      2.00000
     97      -0.8765      2.00000
     98      -0.7605      2.00000
     99      -0.5798      2.00000
    100      -0.5047      2.00000
    101      -0.4364      2.00000
    102      -0.3267      2.00000
    103      -0.2419      2.00000
    104      -0.0700      2.00000
    105       0.1685      2.00000
    106       0.4148      2.00000
    107       0.5827      2.00000
    108       0.7564      2.00000
    109       0.9821      2.00000
    110       1.1702      2.00000
    111       1.4148      2.00000
    112       1.4751      2.00000
    113       1.7409      2.00000
    114       1.8902      2.00000
    115       2.0470      2.00000
    116       2.1261      2.00000
    117       2.3602      2.00000
    118       2.4291      2.00000
    119       2.7121      2.00000
    120       2.7903      2.00000
    121       2.8120      2.00000
    122       2.9591      2.00000
    123       3.0417      2.00000
    124       3.2348      2.00000
    125       3.3785      2.00000
    126       3.4175      2.00000
    127       3.4664      2.00000
    128       3.6154      2.00000
    129       3.6776      2.00000
    130       3.7770      2.00000
    131       3.9239      2.00000
    132       4.0755      2.00000
    133       4.1433      2.00000
    134       4.2497      2.00000
    135       4.3147      2.00000
    136       4.3811      2.00000
    137       4.5069      2.00000
    138       4.6453      2.00000
    139       4.7861      2.00000
    140       4.9572      2.00000
    141       5.0939      1.99927
    142       6.6690      0.00000
    143       7.7504      0.00000
    144       7.9005      0.00000
    145       9.7292      0.00000
    146      10.4302      0.00000
    147      10.6428      0.00000
    148      10.8093      0.00000
    149      10.9963      0.00000
    150      11.1223      0.00000
    151      11.3199      0.00000
    152      11.4649      0.00000
    153      11.6698      0.00000
    154      11.7982      0.00000
    155      11.9999      0.00000
    156      12.0791      0.00000
    157      12.2050      0.00000
    158      12.3712      0.00000
    159      12.6504      0.00000
    160      12.7554      0.00000
    161      12.9157      0.00000
    162      13.0825      0.00000
    163      13.2419      0.00000
    164      13.3201      0.00000
    165      13.4978      0.00000
    166      13.5664      0.00000
    167      13.6541      0.00000
    168      13.8138      0.00000

 k-point     3 :      -0.3750    0.1250    0.2500
  band No.  band energies     occupation 
      1     -10.2706      2.00000
      2     -10.0478      2.00000
      3      -9.9520      2.00000
      4      -9.8732      2.00000
      5      -9.7683      2.00000
      6      -9.6952      2.00000
      7      -9.6634      2.00000
      8      -9.6386      2.00000
      9      -9.6020      2.00000
     10      -9.5369      2.00000
     11      -9.5171      2.00000
     12      -9.4760      2.00000
     13      -9.4623      2.00000
     14      -9.3476      2.00000
     15      -9.3250      2.00000
     16      -8.8588      2.00000
     17      -8.7748      2.00000
     18      -8.7469      2.00000
     19      -8.7288      2.00000
     20      -8.6856      2.00000
     21      -8.6552      2.00000
     22      -8.6213      2.00000
     23      -8.5963      2.00000
     24      -8.5629      2.00000
     25      -8.5513      2.00000
     26      -8.5352      2.00000
     27      -8.5157      2.00000
     28      -8.5107      2.00000
     29      -8.4953      2.00000
     30      -8.4032      2.00000
     31      -8.3699      2.00000
     32      -8.3433      2.00000
     33      -8.3051      2.00000
     34      -8.2427      2.00000
     35      -8.1220      2.00000
     36      -7.8258      2.00000
     37      -7.8186      2.00000
     38      -7.7988      2.00000
     39      -7.7878      2.00000
     40      -7.7836      2.00000
     41      -7.7720      2.00000
     42      -7.7580      2.00000
     43      -7.7481      2.00000
     44      -7.7359      2.00000
     45      -7.7314      2.00000
     46      -7.7211      2.00000
     47      -7.7054      2.00000
     48      -7.7019      2.00000
     49      -7.6944      2.00000
     50      -7.6861      2.00000
     51      -7.6752      2.00000
     52      -7.6706      2.00000
     53      -7.6632      2.00000
     54      -7.6549      2.00000
     55      -7.6427      2.00000
     56      -7.6375      2.00000
     57      -7.6259      2.00000
     58      -7.6206      2.00000
     59      -7.6122      2.00000
     60      -7.6042      2.00000
     61      -7.5960      2.00000
     62      -7.5921      2.00000
     63      -7.5870      2.00000
     64      -7.5798      2.00000
     65      -7.5708      2.00000
     66      -7.5625      2.00000
     67      -7.5539      2.00000
     68      -7.5459      2.00000
     69      -7.5402      2.00000
     70      -7.5298      2.00000
     71      -7.5220      2.00000
     72      -7.5122      2.00000
     73      -7.4990      2.00000
     74      -7.4871      2.00000
     75      -7.4626      2.00000
     76      -7.4591      2.00000
     77      -7.4459      2.00000
     78      -7.4246      2.00000
     79      -7.4152      2.00000
     80      -7.4073      2.00000
     81      -7.4034      2.00000
     82      -7.3942      2.00000
     83      -7.3540      2.00000
     84      -7.1935      2.00000
     85      -6.9488      2.00000
     86      -6.6523      2.00000
     87      -6.4319      2.00000
     88      -6.2635      2.00000
     89      -6.1968      2.00000
     90      -6.1012      2.00000
     91      -6.0145      2.00000
     92      -5.9567      2.00000
     93      -5.8696      2.00000
     94      -5.7601      2.00000
     95      -5.6924      2.00000
     96      -2.2218      2.00000
     97      -0.8725      2.00000
     98      -0.7625      2.00000
     99      -0.6153      2.00000
    100      -0.5260      2.00000
    101      -0.4086      2.00000
    102      -0.3258      2.00000
    103      -0.2213      2.00000
    104      -0.0885      2.00000
    105       0.1691      2.00000
    106       0.3828      2.00000
    107       0.5744      2.00000
    108       0.8443      2.00000
    109       1.0010      2.00000
    110       1.1482      2.00000
    111       1.4338      2.00000
    112       1.4948      2.00000
    113       1.6959      2.00000
    114       1.8691      2.00000
    115       2.0808      2.00000
    116       2.1120      2.00000
    117       2.3221      2.00000
    118       2.4280      2.00000
    119       2.6671      2.00000
    120       2.7354      2.00000
    121       2.8326      2.00000
    122       2.9928      2.00000
    123       3.0788      2.00000
    124       3.2646      2.00000
    125       3.3692      2.00000
    126       3.4233      2.00000
    127       3.4752      2.00000
    128       3.5505      2.00000
    129       3.6694      2.00000
    130       3.8426      2.00000
    131       3.9283      2.00000
    132       4.1107      2.00000
    133       4.1645      2.00000
    134       4.2382      2.00000
    135       4.2971      2.00000
    136       4.3410      2.00000
    137       4.4981      2.00000
    138       4.6694      2.00000
    139       4.7454      2.00000
    140       4.9899      2.00000
    141       5.0907      1.99987
    142       6.7813      0.00000
    143       7.6548      0.00000
    144       7.8473      0.00000
    145       9.7511      0.00000
    146      10.4220      0.00000
    147      10.6534      0.00000
    148      10.7900      0.00000
    149      10.9884      0.00000
    150      11.1306      0.00000
    151      11.3448      0.00000
    152      11.4709      0.00000
    153      11.6462      0.00000
    154      11.8351      0.00000
    155      11.8881      0.00000
    156      12.0890      0.00000
    157      12.2567      0.00000
    158      12.3662      0.00000
    159      12.6916      0.00000
    160      12.7901      0.00000
    161      13.0088      0.00000
    162      13.1053      0.00000
    163      13.1664      0.00000
    164      13.3275      0.00000
    165      13.4271      0.00000
    166      13.5886      0.00000
    167      13.7239      0.00000
    168      13.8766      0.00000

 k-point     4 :      -0.1250    0.1250    0.2500
  band No.  band energies     occupation 
      1     -10.4656      2.00000
      2     -10.1636      2.00000
      3      -9.8927      2.00000
      4      -9.7937      2.00000
      5      -9.7495      2.00000
      6      -9.6975      2.00000
      7      -9.6634      2.00000
      8      -9.6444      2.00000
      9      -9.5827      2.00000
     10      -9.5343      2.00000
     11      -9.5008      2.00000
     12      -9.4748      2.00000
     13      -9.4677      2.00000
     14      -9.3829      2.00000
     15      -9.3313      2.00000
     16      -8.8534      2.00000
     17      -8.7709      2.00000
     18      -8.7562      2.00000
     19      -8.7316      2.00000
     20      -8.6833      2.00000
     21      -8.6338      2.00000
     22      -8.6264      2.00000
     23      -8.5936      2.00000
     24      -8.5522      2.00000
     25      -8.5477      2.00000
     26      -8.5340      2.00000
     27      -8.5143      2.00000
     28      -8.4982      2.00000
     29      -8.4442      2.00000
     30      -8.3961      2.00000
     31      -8.3644      2.00000
     32      -8.3426      2.00000
     33      -8.3022      2.00000
     34      -8.2772      2.00000
     35      -8.1413      2.00000
     36      -7.8477      2.00000
     37      -7.8407      2.00000
     38      -7.8042      2.00000
     39      -7.7983      2.00000
     40      -7.7901      2.00000
     41      -7.7755      2.00000
     42      -7.7697      2.00000
     43      -7.7619      2.00000
     44      -7.7526      2.00000
     45      -7.7378      2.00000
     46      -7.7285      2.00000
     47      -7.7246      2.00000
     48      -7.7078      2.00000
     49      -7.7058      2.00000
     50      -7.6916      2.00000
     51      -7.6807      2.00000
     52      -7.6638      2.00000
     53      -7.6594      2.00000
     54      -7.6485      2.00000
     55      -7.6393      2.00000
     56      -7.6277      2.00000
     57      -7.6248      2.00000
     58      -7.6168      2.00000
     59      -7.6112      2.00000
     60      -7.6046      2.00000
     61      -7.5945      2.00000
     62      -7.5918      2.00000
     63      -7.5823      2.00000
     64      -7.5709      2.00000
     65      -7.5616      2.00000
     66      -7.5599      2.00000
     67      -7.5428      2.00000
     68      -7.5366      2.00000
     69      -7.5264      2.00000
     70      -7.5220      2.00000
     71      -7.5143      2.00000
     72      -7.4998      2.00000
     73      -7.4869      2.00000
     74      -7.4709      2.00000
     75      -7.4594      2.00000
     76      -7.4412      2.00000
     77      -7.4368      2.00000
     78      -7.4277      2.00000
     79      -7.4120      2.00000
     80      -7.3981      2.00000
     81      -7.3923      2.00000
     82      -7.3855      2.00000
     83      -7.1816      2.00000
     84      -6.9069      2.00000
     85      -6.6772      2.00000
     86      -6.5991      2.00000
     87      -6.4559      2.00000
     88      -6.3663      2.00000
     89      -6.2398      2.00000
     90      -6.1496      2.00000
     91      -6.1254      2.00000
     92      -5.9816      2.00000
     93      -5.8309      2.00000
     94      -5.7832      2.00000
     95      -5.7161      2.00000
     96      -2.2071      2.00000
     97      -1.1363      2.00000
     98      -0.9898      2.00000
     99      -0.8097      2.00000
    100      -0.7227      2.00000
    101      -0.4919      2.00000
    102      -0.4490      2.00000
    103      -0.3635      2.00000
    104      -0.2478      2.00000
    105      -0.2089      2.00000
    106       0.2707      2.00000
    107       0.4221      2.00000
    108       0.5288      2.00000
    109       0.7983      2.00000
    110       1.1521      2.00000
    111       1.3501      2.00000
    112       1.5044      2.00000
    113       1.5823      2.00000
    114       1.7554      2.00000
    115       2.1657      2.00000
    116       2.2947      2.00000
    117       2.4767      2.00000
    118       2.6043      2.00000
    119       2.7874      2.00000
    120       2.9000      2.00000
    121       3.1088      2.00000
    122       3.1566      2.00000
    123       3.2653      2.00000
    124       3.3524      2.00000
    125       3.4315      2.00000
    126       3.5496      2.00000
    127       3.6375      2.00000
    128       3.7301      2.00000
    129       3.8918      2.00000
    130       3.9881      2.00000
    131       4.1438      2.00000
    132       4.1807      2.00000
    133       4.2259      2.00000
    134       4.3301      2.00000
    135       4.3863      2.00000
    136       4.5894      2.00000
    137       4.7426      2.00000
    138       4.8810      2.00000
    139       4.9875      2.00000
    140       5.1336      0.02591
    141       5.3379      0.00000
    142       7.3635      0.00000
    143       7.6976      0.00000
    144       8.0767      0.00000
    145       9.0987      0.00000
    146       9.9381      0.00000
    147      10.1845      0.00000
    148      10.5305      0.00000
    149      10.6934      0.00000
    150      10.7449      0.00000
    151      10.8620      0.00000
    152      11.1269      0.00000
    153      11.1865      0.00000
    154      11.2706      0.00000
    155      11.4665      0.00000
    156      11.7327      0.00000
    157      11.9383      0.00000
    158      12.2863      0.00000
    159      12.5232      0.00000
    160      12.5946      0.00000
    161      12.7460      0.00000
    162      13.0091      0.00000
    163      13.2251      0.00000
    164      13.3764      0.00000
    165      13.4331      0.00000
    166      13.5485      0.00000
    167      13.7280      0.00000
    168      13.8881      0.00000

 k-point     5 :       0.1250    0.3750    0.2500
  band No.  band energies     occupation 
      1     -10.2189      2.00000
      2     -10.0465      2.00000
      3      -9.8479      2.00000
      4      -9.8168      2.00000
      5      -9.7708      2.00000
      6      -9.7007      2.00000
      7      -9.6781      2.00000
      8      -9.6500      2.00000
      9      -9.6160      2.00000
     10      -9.5630      2.00000
     11      -9.5260      2.00000
     12      -9.4975      2.00000
     13      -9.4672      2.00000
     14      -9.3737      2.00000
     15      -9.3393      2.00000
     16      -8.8768      2.00000
     17      -8.7730      2.00000
     18      -8.7252      2.00000
     19      -8.6985      2.00000
     20      -8.6695      2.00000
     21      -8.6211      2.00000
     22      -8.6077      2.00000
     23      -8.5921      2.00000
     24      -8.5498      2.00000
     25      -8.5401      2.00000
     26      -8.5288      2.00000
     27      -8.5161      2.00000
     28      -8.4987      2.00000
     29      -8.4816      2.00000
     30      -8.4063      2.00000
     31      -8.3542      2.00000
     32      -8.3402      2.00000
     33      -8.2906      2.00000
     34      -8.2565      2.00000
     35      -8.1748      2.00000
     36      -7.8213      2.00000
     37      -7.8129      2.00000
     38      -7.7924      2.00000
     39      -7.7824      2.00000
     40      -7.7765      2.00000
     41      -7.7670      2.00000
     42      -7.7582      2.00000
     43      -7.7482      2.00000
     44      -7.7408      2.00000
     45      -7.7309      2.00000
     46      -7.7243      2.00000
     47      -7.7110      2.00000
     48      -7.7067      2.00000
     49      -7.6943      2.00000
     50      -7.6866      2.00000
     51      -7.6809      2.00000
     52      -7.6655      2.00000
     53      -7.6588      2.00000
     54      -7.6517      2.00000
     55      -7.6467      2.00000
     56      -7.6334      2.00000
     57      -7.6284      2.00000
     58      -7.6174      2.00000
     59      -7.6105      2.00000
     60      -7.6056      2.00000
     61      -7.6003      2.00000
     62      -7.5882      2.00000
     63      -7.5752      2.00000
     64      -7.5703      2.00000
     65      -7.5530      2.00000
     66      -7.5514      2.00000
     67      -7.5402      2.00000
     68      -7.5336      2.00000
     69      -7.5251      2.00000
     70      -7.5143      2.00000
     71      -7.5102      2.00000
     72      -7.4916      2.00000
     73      -7.4810      2.00000
     74      -7.4658      2.00000
     75      -7.4612      2.00000
     76      -7.4426      2.00000
     77      -7.4314      2.00000
     78      -7.4101      2.00000
     79      -7.4047      2.00000
     80      -7.3931      2.00000
     81      -7.3857      2.00000
     82      -7.3713      2.00000
     83      -7.2261      2.00000
     84      -7.0548      2.00000
     85      -6.9178      2.00000
     86      -6.6773      2.00000
     87      -6.5468      2.00000
     88      -6.4712      2.00000
     89      -6.3132      2.00000
     90      -6.2552      2.00000
     91      -6.1866      2.00000
     92      -6.0668      2.00000
     93      -5.9615      2.00000
     94      -5.8651      2.00000
     95      -5.8013      2.00000
     96      -2.4029      2.00000
     97      -1.0987      2.00000
     98      -0.9513      2.00000
     99      -0.8273      2.00000
    100      -0.8077      2.00000
    101      -0.6952      2.00000
    102      -0.5998      2.00000
    103      -0.2998      2.00000
    104      -0.2415      2.00000
    105       0.0686      2.00000
    106       0.2548      2.00000
    107       0.5897      2.00000
    108       0.8136      2.00000
    109       0.9823      2.00000
    110       1.3501      2.00000
    111       1.4284      2.00000
    112       1.6906      2.00000
    113       2.0116      2.00000
    114       2.4019      2.00000
    115       2.5282      2.00000
    116       2.6524      2.00000
    117       2.7323      2.00000
    118       2.8047      2.00000
    119       2.9851      2.00000
    120       3.0315      2.00000
    121       3.1947      2.00000
    122       3.2746      2.00000
    123       3.3319      2.00000
    124       3.3827      2.00000
    125       3.4981      2.00000
    126       3.5623      2.00000
    127       3.6563      2.00000
    128       3.8681      2.00000
    129       3.8739      2.00000
    130       3.9930      2.00000
    131       4.0709      2.00000
    132       4.1077      2.00000
    133       4.1426      2.00000
    134       4.2540      2.00000
    135       4.3230      2.00000
    136       4.3714      2.00000
    137       4.4401      2.00000
    138       4.5966      2.00000
    139       4.7030      2.00000
    140       4.9027      2.00000
    141       5.0130      2.00000
    142       6.9889      0.00000
    143       7.6427      0.00000
    144       8.3851      0.00000
    145       9.8246      0.00000
    146       9.9178      0.00000
    147      10.0532      0.00000
    148      10.2903      0.00000
    149      10.5187      0.00000
    150      10.6876      0.00000
    151      10.8279      0.00000
    152      10.9148      0.00000
    153      11.0181      0.00000
    154      11.1454      0.00000
    155      11.2206      0.00000
    156      11.4209      0.00000
    157      11.6364      0.00000
    158      11.8026      0.00000
    159      12.1045      0.00000
    160      12.4086      0.00000
    161      12.5815      0.00000
    162      12.6620      0.00000
    163      13.0437      0.00000
    164      13.1556      0.00000
    165      13.2631      0.00000
    166      13.4819      0.00000
    167      13.7630      0.00000
    168      13.8626      0.00000

 k-point     6 :       0.3750    0.3750    0.2500
  band No.  band energies     occupation 
      1     -10.0814      2.00000
      2      -9.9771      2.00000
      3      -9.8766      2.00000
      4      -9.8109      2.00000
      5      -9.7589      2.00000
      6      -9.6986      2.00000
      7      -9.6665      2.00000
      8      -9.6479      2.00000
      9      -9.6044      2.00000
     10      -9.5835      2.00000
     11      -9.5575      2.00000
     12      -9.5089      2.00000
     13      -9.4699      2.00000
     14      -9.3517      2.00000
     15      -9.3229      2.00000
     16      -8.8755      2.00000
     17      -8.7700      2.00000
     18      -8.7595      2.00000
     19      -8.7108      2.00000
     20      -8.6794      2.00000
     21      -8.6204      2.00000
     22      -8.5940      2.00000
     23      -8.5784      2.00000
     24      -8.5548      2.00000
     25      -8.5428      2.00000
     26      -8.5280      2.00000
     27      -8.5182      2.00000
     28      -8.5001      2.00000
     29      -8.4740      2.00000
     30      -8.4681      2.00000
     31      -8.3531      2.00000
     32      -8.3393      2.00000
     33      -8.2884      2.00000
     34      -8.2421      2.00000
     35      -8.1379      2.00000
     36      -7.8176      2.00000
     37      -7.7930      2.00000
     38      -7.7844      2.00000
     39      -7.7800      2.00000
     40      -7.7679      2.00000
     41      -7.7595      2.00000
     42      -7.7436      2.00000
     43      -7.7389      2.00000
     44      -7.7278      2.00000
     45      -7.7255      2.00000
     46      -7.7179      2.00000
     47      -7.7033      2.00000
     48      -7.6946      2.00000
     49      -7.6905      2.00000
     50      -7.6823      2.00000
     51      -7.6793      2.00000
     52      -7.6660      2.00000
     53      -7.6599      2.00000
     54      -7.6525      2.00000
     55      -7.6455      2.00000
     56      -7.6380      2.00000
     57      -7.6304      2.00000
     58      -7.6276      2.00000
     59      -7.6177      2.00000
     60      -7.6057      2.00000
     61      -7.5948      2.00000
     62      -7.5885      2.00000
     63      -7.5815      2.00000
     64      -7.5720      2.00000
     65      -7.5604      2.00000
     66      -7.5540      2.00000
     67      -7.5443      2.00000
     68      -7.5369      2.00000
     69      -7.5340      2.00000
     70      -7.5218      2.00000
     71      -7.5109      2.00000
     72      -7.5024      2.00000
     73      -7.4950      2.00000
     74      -7.4689      2.00000
     75      -7.4606      2.00000
     76      -7.4534      2.00000
     77      -7.4350      2.00000
     78      -7.4166      2.00000
     79      -7.4082      2.00000
     80      -7.3919      2.00000
     81      -7.3816      2.00000
     82      -7.2972      2.00000
     83      -7.2151      2.00000
     84      -7.0619      2.00000
     85      -7.0021      2.00000
     86      -6.8371      2.00000
     87      -6.7526      2.00000
     88      -6.6311      2.00000
     89      -6.5107      2.00000
     90      -6.3895      2.00000
     91      -6.2532      2.00000
     92      -6.0790      2.00000
     93      -5.9370      2.00000
     94      -5.8276      2.00000
     95      -5.7170      2.00000
     96      -2.5645      2.00000
     97      -0.6416      2.00000
     98      -0.5277      2.00000
     99      -0.4214      2.00000
    100      -0.3695      2.00000
    101      -0.2679      2.00000
    102      -0.0796      2.00000
    103       0.0471      2.00000
    104       0.1253      2.00000
    105       0.5275      2.00000
    106       0.5705      2.00000
    107       0.6819      2.00000
    108       0.8307      2.00000
    109       1.0789      2.00000
    110       1.3636      2.00000
    111       1.4863      2.00000
    112       1.5881      2.00000
    113       1.6702      2.00000
    114       1.9116      2.00000
    115       2.1277      2.00000
    116       2.2250      2.00000
    117       2.3623      2.00000
    118       2.5209      2.00000
    119       2.7169      2.00000
    120       2.7994      2.00000
    121       2.8817      2.00000
    122       3.0051      2.00000
    123       3.0914      2.00000
    124       3.1599      2.00000
    125       3.3392      2.00000
    126       3.4840      2.00000
    127       3.5549      2.00000
    128       3.6876      2.00000
    129       3.7535      2.00000
    130       3.8334      2.00000
    131       3.9065      2.00000
    132       3.9541      2.00000
    133       4.1264      2.00000
    134       4.1890      2.00000
    135       4.2604      2.00000
    136       4.2887      2.00000
    137       4.4136      2.00000
    138       4.5146      2.00000
    139       4.6236      2.00000
    140       4.7164      2.00000
    141       4.7860      2.00000
    142       6.9723      0.00000
    143       7.5084      0.00000
    144       7.7932      0.00000
    145      10.1030      0.00000
    146      10.3624      0.00000
    147      10.5742      0.00000
    148      10.7651      0.00000
    149      10.9596      0.00000
    150      11.1476      0.00000
    151      11.2656      0.00000
    152      11.3583      0.00000
    153      11.5343      0.00000
    154      11.6669      0.00000
    155      11.7206      0.00000
    156      11.8877      0.00000
    157      12.0055      0.00000
    158      12.1367      0.00000
    159      12.4230      0.00000
    160      12.5423      0.00000
    161      12.7106      0.00000
    162      12.8964      0.00000
    163      13.0792      0.00000
    164      13.2535      0.00000
    165      13.3153      0.00000
    166      13.4231      0.00000
    167      13.5954      0.00000
    168      13.8641      0.00000

 k-point     7 :      -0.3750    0.3750    0.2500
  band No.  band energies     occupation 
      1     -10.0825      2.00000
      2      -9.9660      2.00000
      3      -9.8764      2.00000
      4      -9.8291      2.00000
      5      -9.7537      2.00000
      6      -9.7021      2.00000
      7      -9.6649      2.00000
      8      -9.6484      2.00000
      9      -9.6007      2.00000
     10      -9.5735      2.00000
     11      -9.5691      2.00000
     12      -9.4999      2.00000
     13      -9.4772      2.00000
     14      -9.3514      2.00000
     15      -9.3223      2.00000
     16      -8.8742      2.00000
     17      -8.7786      2.00000
     18      -8.7569      2.00000
     19      -8.7087      2.00000
     20      -8.6759      2.00000
     21      -8.6214      2.00000
     22      -8.6005      2.00000
     23      -8.5690      2.00000
     24      -8.5526      2.00000
     25      -8.5350      2.00000
     26      -8.5287      2.00000
     27      -8.5178      2.00000
     28      -8.5046      2.00000
     29      -8.4977      2.00000
     30      -8.4520      2.00000
     31      -8.3534      2.00000
     32      -8.3388      2.00000
     33      -8.2886      2.00000
     34      -8.2420      2.00000
     35      -8.1373      2.00000
     36      -7.8192      2.00000
     37      -7.7944      2.00000
     38      -7.7824      2.00000
     39      -7.7748      2.00000
     40      -7.7689      2.00000
     41      -7.7562      2.00000
     42      -7.7507      2.00000
     43      -7.7423      2.00000
     44      -7.7303      2.00000
     45      -7.7198      2.00000
     46      -7.7123      2.00000
     47      -7.7069      2.00000
     48      -7.7007      2.00000
     49      -7.6900      2.00000
     50      -7.6828      2.00000
     51      -7.6743      2.00000
     52      -7.6684      2.00000
     53      -7.6612      2.00000
     54      -7.6541      2.00000
     55      -7.6450      2.00000
     56      -7.6374      2.00000
     57      -7.6336      2.00000
     58      -7.6226      2.00000
     59      -7.6119      2.00000
     60      -7.6028      2.00000
     61      -7.5966      2.00000
     62      -7.5907      2.00000
     63      -7.5814      2.00000
     64      -7.5671      2.00000
     65      -7.5625      2.00000
     66      -7.5532      2.00000
     67      -7.5501      2.00000
     68      -7.5413      2.00000
     69      -7.5299      2.00000
     70      -7.5243      2.00000
     71      -7.5178      2.00000
     72      -7.5030      2.00000
     73      -7.4887      2.00000
     74      -7.4776      2.00000
     75      -7.4519      2.00000
     76      -7.4428      2.00000
     77      -7.4395      2.00000
     78      -7.4184      2.00000
     79      -7.4084      2.00000
     80      -7.3895      2.00000
     81      -7.3854      2.00000
     82      -7.3126      2.00000
     83      -7.2002      2.00000
     84      -7.0386      2.00000
     85      -7.0018      2.00000
     86      -6.8488      2.00000
     87      -6.7835      2.00000
     88      -6.6034      2.00000
     89      -6.5103      2.00000
     90      -6.3952      2.00000
     91      -6.2408      2.00000
     92      -6.1125      2.00000
     93      -5.9154      2.00000
     94      -5.8392      2.00000
     95      -5.7078      2.00000
     96      -2.5650      2.00000
     97      -0.6471      2.00000
     98      -0.5637      2.00000
     99      -0.3960      2.00000
    100      -0.3564      2.00000
    101      -0.2153      2.00000
    102      -0.0985      2.00000
    103       0.0276      2.00000
    104       0.1075      2.00000
    105       0.5011      2.00000
    106       0.5762      2.00000
    107       0.7194      2.00000
    108       0.8822      2.00000
    109       1.0476      2.00000
    110       1.3356      2.00000
    111       1.4563      2.00000
    112       1.5915      2.00000
    113       1.7032      2.00000
    114       1.8920      2.00000
    115       2.1381      2.00000
    116       2.2194      2.00000
    117       2.3314      2.00000
    118       2.5494      2.00000
    119       2.6769      2.00000
    120       2.8091      2.00000
    121       2.8744      2.00000
    122       3.0148      2.00000
    123       3.1008      2.00000
    124       3.1653      2.00000
    125       3.3502      2.00000
    126       3.4649      2.00000
    127       3.5644      2.00000
    128       3.6998      2.00000
    129       3.7451      2.00000
    130       3.8520      2.00000
    131       3.8968      2.00000
    132       4.0040      2.00000
    133       4.0972      2.00000
    134       4.1759      2.00000
    135       4.2397      2.00000
    136       4.3110      2.00000
    137       4.3941      2.00000
    138       4.5234      2.00000
    139       4.6109      2.00000
    140       4.7280      2.00000
    141       4.8084      2.00000
    142       7.0415      0.00000
    143       7.4654      0.00000
    144       7.7506      0.00000
    145      10.0977      0.00000
    146      10.3194      0.00000
    147      10.5428      0.00000
    148      10.8261      0.00000
    149      10.9777      0.00000
    150      11.0996      0.00000
    151      11.1981      0.00000
    152      11.3591      0.00000
    153      11.4451      0.00000
    154      11.6136      0.00000
    155      11.8150      0.00000
    156      11.8931      0.00000
    157      12.0246      0.00000
    158      12.2970      0.00000
    159      12.4246      0.00000
    160      12.6481      0.00000
    161      12.7944      0.00000
    162      12.9436      0.00000
    163      13.0919      0.00000
    164      13.2813      0.00000
    165      13.3167      0.00000
    166      13.3913      0.00000
    167      13.5683      0.00000
    168      13.7167      0.00000

 k-point     8 :      -0.1250    0.3750    0.2500
  band No.  band energies     occupation 
      1     -10.2189      2.00000
      2     -10.0426      2.00000
      3      -9.8475      2.00000
      4      -9.8200      2.00000
      5      -9.7761      2.00000
      6      -9.6967      2.00000
      7      -9.6803      2.00000
      8      -9.6516      2.00000
      9      -9.6168      2.00000
     10      -9.5558      2.00000
     11      -9.5309      2.00000
     12      -9.4890      2.00000
     13      -9.4745      2.00000
     14      -9.3740      2.00000
     15      -9.3385      2.00000
     16      -8.8759      2.00000
     17      -8.7738      2.00000
     18      -8.7299      2.00000
     19      -8.6995      2.00000
     20      -8.6593      2.00000
     21      -8.6292      2.00000
     22      -8.6114      2.00000
     23      -8.5811      2.00000
     24      -8.5478      2.00000
     25      -8.5366      2.00000
     26      -8.5303      2.00000
     27      -8.5172      2.00000
     28      -8.4995      2.00000
     29      -8.4913      2.00000
     30      -8.4029      2.00000
     31      -8.3539      2.00000
     32      -8.3385      2.00000
     33      -8.2906      2.00000
     34      -8.2580      2.00000
     35      -8.1739      2.00000
     36      -7.8253      2.00000
     37      -7.8108      2.00000
     38      -7.7915      2.00000
     39      -7.7831      2.00000
     40      -7.7688      2.00000
     41      -7.7675      2.00000
     42      -7.7614      2.00000
     43      -7.7497      2.00000
     44      -7.7418      2.00000
     45      -7.7289      2.00000
     46      -7.7246      2.00000
     47      -7.7138      2.00000
     48      -7.7076      2.00000
     49      -7.6946      2.00000
     50      -7.6834      2.00000
     51      -7.6805      2.00000
     52      -7.6721      2.00000
     53      -7.6610      2.00000
     54      -7.6496      2.00000
     55      -7.6411      2.00000
     56      -7.6307      2.00000
     57      -7.6278      2.00000
     58      -7.6195      2.00000
     59      -7.6097      2.00000
     60      -7.6034      2.00000
     61      -7.5975      2.00000
     62      -7.5906      2.00000
     63      -7.5782      2.00000
     64      -7.5689      2.00000
     65      -7.5578      2.00000
     66      -7.5476      2.00000
     67      -7.5408      2.00000
     68      -7.5342      2.00000
     69      -7.5289      2.00000
     70      -7.5169      2.00000
     71      -7.5137      2.00000
     72      -7.4858      2.00000
     73      -7.4809      2.00000
     74      -7.4666      2.00000
     75      -7.4587      2.00000
     76      -7.4396      2.00000
     77      -7.4331      2.00000
     78      -7.4191      2.00000
     79      -7.4061      2.00000
     80      -7.3932      2.00000
     81      -7.3851      2.00000
     82      -7.3654      2.00000
     83      -7.2232      2.00000
     84      -7.0479      2.00000
     85      -6.9127      2.00000
     86      -6.6916      2.00000
     87      -6.5316      2.00000
     88      -6.4700      2.00000
     89      -6.3399      2.00000
     90      -6.2407      2.00000
     91      -6.1737      2.00000
     92      -6.1087      2.00000
     93      -5.9384      2.00000
     94      -5.8632      2.00000
     95      -5.7980      2.00000
     96      -2.4048      2.00000
     97      -1.1274      2.00000
     98      -0.9133      2.00000
     99      -0.8550      2.00000
    100      -0.8020      2.00000
    101      -0.6782      2.00000
    102      -0.5505      2.00000
    103      -0.3660      2.00000
    104      -0.2392      2.00000
    105       0.0972      2.00000
    106       0.2909      2.00000
    107       0.5179      2.00000
    108       0.8159      2.00000
    109       0.9993      2.00000
    110       1.3248      2.00000
    111       1.4571      2.00000
    112       1.6686      2.00000
    113       2.0236      2.00000
    114       2.4016      2.00000
    115       2.5318      2.00000
    116       2.6502      2.00000
    117       2.7170      2.00000
    118       2.7971      2.00000
    119       2.9795      2.00000
    120       3.0761      2.00000
    121       3.1920      2.00000
    122       3.2627      2.00000
    123       3.3231      2.00000
    124       3.4035      2.00000
    125       3.5048      2.00000
    126       3.5600      2.00000
    127       3.6343      2.00000
    128       3.8353      2.00000
    129       3.8794      2.00000
    130       3.9814      2.00000
    131       4.0589      2.00000
    132       4.1204      2.00000
    133       4.1883      2.00000
    134       4.2149      2.00000
    135       4.3313      2.00000
    136       4.3924      2.00000
    137       4.4796      2.00000
    138       4.5646      2.00000
    139       4.6977      2.00000
    140       4.9173      2.00000
    141       5.0217      2.00000
    142       7.0242      0.00000
    143       7.6472      0.00000
    144       8.2957      0.00000
    145       9.7829      0.00000
    146       9.9358      0.00000
    147      10.0885      0.00000
    148      10.3671      0.00000
    149      10.5096      0.00000
    150      10.6841      0.00000
    151      10.7713      0.00000
    152      10.8587      0.00000
    153      10.9737      0.00000
    154      11.1319      0.00000
    155      11.2808      0.00000
    156      11.4909      0.00000
    157      11.5860      0.00000
    158      11.8135      0.00000
    159      12.0788      0.00000
    160      12.4644      0.00000
    161      12.5805      0.00000
    162      12.7910      0.00000
    163      13.0013      0.00000
    164      13.1416      0.00000
    165      13.3405      0.00000
    166      13.4701      0.00000
    167      13.7709      0.00000
    168      13.8619      0.00000

 k-point     9 :       0.1250   -0.3750    0.2500
  band No.  band energies     occupation 
      1     -10.2248      2.00000
      2     -10.0107      2.00000
      3      -9.9010      2.00000
      4      -9.8216      2.00000
      5      -9.7434      2.00000
      6      -9.7042      2.00000
      7      -9.6702      2.00000
      8      -9.6495      2.00000
      9      -9.6302      2.00000
     10      -9.5413      2.00000
     11      -9.5383      2.00000
     12      -9.4916      2.00000
     13      -9.4731      2.00000
     14      -9.3747      2.00000
     15      -9.3387      2.00000
     16      -8.8759      2.00000
     17      -8.7739      2.00000
     18      -8.7295      2.00000
     19      -8.6994      2.00000
     20      -8.6596      2.00000
     21      -8.6292      2.00000
     22      -8.6117      2.00000
     23      -8.5814      2.00000
     24      -8.5480      2.00000
     25      -8.5367      2.00000
     26      -8.5304      2.00000
     27      -8.5172      2.00000
     28      -8.4980      2.00000
     29      -8.4924      2.00000
     30      -8.4016      2.00000
     31      -8.3551      2.00000
     32      -8.3384      2.00000
     33      -8.2910      2.00000
     34      -8.2573      2.00000
     35      -8.1738      2.00000
     36      -7.8253      2.00000
     37      -7.8111      2.00000
     38      -7.7907      2.00000
     39      -7.7848      2.00000
     40      -7.7725      2.00000
     41      -7.7668      2.00000
     42      -7.7613      2.00000
     43      -7.7457      2.00000
     44      -7.7372      2.00000
     45      -7.7311      2.00000
     46      -7.7236      2.00000
     47      -7.7134      2.00000
     48      -7.7066      2.00000
     49      -7.6960      2.00000
     50      -7.6879      2.00000
     51      -7.6798      2.00000
     52      -7.6717      2.00000
     53      -7.6602      2.00000
     54      -7.6509      2.00000
     55      -7.6408      2.00000
     56      -7.6321      2.00000
     57      -7.6291      2.00000
     58      -7.6197      2.00000
     59      -7.6117      2.00000
     60      -7.6018      2.00000
     61      -7.5972      2.00000
     62      -7.5905      2.00000
     63      -7.5766      2.00000
     64      -7.5687      2.00000
     65      -7.5586      2.00000
     66      -7.5483      2.00000
     67      -7.5393      2.00000
     68      -7.5340      2.00000
     69      -7.5236      2.00000
     70      -7.5198      2.00000
     71      -7.5127      2.00000
     72      -7.4952      2.00000
     73      -7.4785      2.00000
     74      -7.4702      2.00000
     75      -7.4498      2.00000
     76      -7.4400      2.00000
     77      -7.4337      2.00000
     78      -7.4163      2.00000
     79      -7.4005      2.00000
     80      -7.3912      2.00000
     81      -7.3775      2.00000
     82      -7.3659      2.00000
     83      -7.2452      2.00000
     84      -7.0721      2.00000
     85      -6.8532      2.00000
     86      -6.6935      2.00000
     87      -6.5487      2.00000
     88      -6.4742      2.00000
     89      -6.3893      2.00000
     90      -6.2498      2.00000
     91      -6.1551      2.00000
     92      -6.0573      2.00000
     93      -5.9463      2.00000
     94      -5.8674      2.00000
     95      -5.8039      2.00000
     96      -2.4087      2.00000
     97      -1.1294      2.00000
     98      -0.9275      2.00000
     99      -0.8349      2.00000
    100      -0.7718      2.00000
    101      -0.6488      2.00000
    102      -0.5845      2.00000
    103      -0.3257      2.00000
    104      -0.2969      2.00000
    105       0.1046      2.00000
    106       0.2907      2.00000
    107       0.5186      2.00000
    108       0.7532      2.00000
    109       0.9536      2.00000
    110       1.3416      2.00000
    111       1.4848      2.00000
    112       1.6636      2.00000
    113       2.1340      2.00000
    114       2.4672      2.00000
    115       2.5565      2.00000
    116       2.6187      2.00000
    117       2.6601      2.00000
    118       2.8367      2.00000
    119       2.9044      2.00000
    120       3.0349      2.00000
    121       3.1966      2.00000
    122       3.2526      2.00000
    123       3.3001      2.00000
    124       3.3870      2.00000
    125       3.5136      2.00000
    126       3.6315      2.00000
    127       3.6898      2.00000
    128       3.7469      2.00000
    129       3.8963      2.00000
    130       3.9807      2.00000
    131       4.0211      2.00000
    132       4.1252      2.00000
    133       4.1738      2.00000
    134       4.2980      2.00000
    135       4.3389      2.00000
    136       4.4163      2.00000
    137       4.4448      2.00000
    138       4.5545      2.00000
    139       4.6909      2.00000
    140       4.8864      2.00000
    141       5.0201      2.00000
    142       7.0482      0.00000
    143       7.6405      0.00000
    144       8.2919      0.00000
    145       9.7710      0.00000
    146       9.9324      0.00000
    147      10.0671      0.00000
    148      10.3501      0.00000
    149      10.5245      0.00000
    150      10.6934      0.00000
    151      10.7370      0.00000
    152      10.9480      0.00000
    153      11.0001      0.00000
    154      11.1199      0.00000
    155      11.3297      0.00000
    156      11.4148      0.00000
    157      11.7133      0.00000
    158      11.7817      0.00000
    159      12.0441      0.00000
    160      12.3894      0.00000
    161      12.5157      0.00000
    162      12.7922      0.00000
    163      13.0286      0.00000
    164      13.2140      0.00000
    165      13.3278      0.00000
    166      13.5059      0.00000
    167      13.6644      0.00000
    168      13.8403      0.00000

 k-point    10 :       0.3750   -0.3750    0.2500
  band No.  band energies     occupation 
      1     -10.0870      2.00000
      2      -9.9544      2.00000
      3      -9.8778      2.00000
      4      -9.8259      2.00000
      5      -9.7612      2.00000
      6      -9.7126      2.00000
      7      -9.6739      2.00000
      8      -9.6355      2.00000
      9      -9.6010      2.00000
     10      -9.5767      2.00000
     11      -9.5583      2.00000
     12      -9.5014      2.00000
     13      -9.4771      2.00000
     14      -9.3511      2.00000
     15      -9.3235      2.00000
     16      -8.8741      2.00000
     17      -8.7784      2.00000
     18      -8.7568      2.00000
     19      -8.7086      2.00000
     20      -8.6764      2.00000
     21      -8.6217      2.00000
     22      -8.6005      2.00000
     23      -8.5691      2.00000
     24      -8.5528      2.00000
     25      -8.5351      2.00000
     26      -8.5293      2.00000
     27      -8.5176      2.00000
     28      -8.5059      2.00000
     29      -8.4956      2.00000
     30      -8.4517      2.00000
     31      -8.3535      2.00000
     32      -8.3388      2.00000
     33      -8.2886      2.00000
     34      -8.2417      2.00000
     35      -8.1375      2.00000
     36      -7.8195      2.00000
     37      -7.7950      2.00000
     38      -7.7802      2.00000
     39      -7.7781      2.00000
     40      -7.7683      2.00000
     41      -7.7563      2.00000
     42      -7.7513      2.00000
     43      -7.7384      2.00000
     44      -7.7276      2.00000
     45      -7.7243      2.00000
     46      -7.7105      2.00000
     47      -7.7071      2.00000
     48      -7.6985      2.00000
     49      -7.6941      2.00000
     50      -7.6855      2.00000
     51      -7.6742      2.00000
     52      -7.6691      2.00000
     53      -7.6586      2.00000
     54      -7.6542      2.00000
     55      -7.6439      2.00000
     56      -7.6386      2.00000
     57      -7.6327      2.00000
     58      -7.6236      2.00000
     59      -7.6123      2.00000
     60      -7.6045      2.00000
     61      -7.5966      2.00000
     62      -7.5862      2.00000
     63      -7.5816      2.00000
     64      -7.5688      2.00000
     65      -7.5625      2.00000
     66      -7.5552      2.00000
     67      -7.5460      2.00000
     68      -7.5408      2.00000
     69      -7.5302      2.00000
     70      -7.5244      2.00000
     71      -7.5196      2.00000
     72      -7.5104      2.00000
     73      -7.4837      2.00000
     74      -7.4772      2.00000
     75      -7.4609      2.00000
     76      -7.4411      2.00000
     77      -7.4370      2.00000
     78      -7.4189      2.00000
     79      -7.4108      2.00000
     80      -7.3945      2.00000
     81      -7.3786      2.00000
     82      -7.2853      2.00000
     83      -7.1982      2.00000
     84      -7.0894      2.00000
     85      -6.9811      2.00000
     86      -6.8453      2.00000
     87      -6.7415      2.00000
     88      -6.6330      2.00000
     89      -6.5412      2.00000
     90      -6.3684      2.00000
     91      -6.2668      2.00000
     92      -6.0737      2.00000
     93      -5.9368      2.00000
     94      -5.8412      2.00000
     95      -5.6990      2.00000
     96      -2.5699      2.00000
     97      -0.6708      2.00000
     98      -0.5021      2.00000
     99      -0.3490      2.00000
    100      -0.3296      2.00000
    101      -0.2327      2.00000
    102      -0.1065      2.00000
    103      -0.0789      2.00000
    104       0.1042      2.00000
    105       0.5297      2.00000
    106       0.6063      2.00000
    107       0.6929      2.00000
    108       0.8575      2.00000
    109       0.9946      2.00000
    110       1.3345      2.00000
    111       1.4482      2.00000
    112       1.6280      2.00000
    113       1.7751      2.00000
    114       1.8825      2.00000
    115       2.1667      2.00000
    116       2.2526      2.00000
    117       2.3508      2.00000
    118       2.4880      2.00000
    119       2.6875      2.00000
    120       2.7618      2.00000
    121       2.9039      2.00000
    122       2.9644      2.00000
    123       3.0517      2.00000
    124       3.2091      2.00000
    125       3.3434      2.00000
    126       3.4558      2.00000
    127       3.5596      2.00000
    128       3.6858      2.00000
    129       3.7922      2.00000
    130       3.8741      2.00000
    131       3.9301      2.00000
    132       4.0399      2.00000
    133       4.0816      2.00000
    134       4.1900      2.00000
    135       4.2290      2.00000
    136       4.3317      2.00000
    137       4.3860      2.00000
    138       4.4370      2.00000
    139       4.5975      2.00000
    140       4.7253      2.00000
    141       4.8303      2.00000
    142       7.0451      0.00000
    143       7.4143      0.00000
    144       7.8002      0.00000
    145      10.1119      0.00000
    146      10.2984      0.00000
    147      10.6044      0.00000
    148      10.7551      0.00000
    149      10.9284      0.00000
    150      11.0912      0.00000
    151      11.2486      0.00000
    152      11.3343      0.00000
    153      11.5794      0.00000
    154      11.6518      0.00000
    155      11.6994      0.00000
    156      11.8985      0.00000
    157      12.1040      0.00000
    158      12.1877      0.00000
    159      12.4955      0.00000
    160      12.6570      0.00000
    161      12.7993      0.00000
    162      12.9450      0.00000
    163      13.0995      0.00000
    164      13.1729      0.00000
    165      13.3099      0.00000
    166      13.4109      0.00000
    167      13.4680      0.00000
    168      13.7261      0.00000

 k-point    11 :      -0.3750   -0.3750    0.2500
  band No.  band energies     occupation 
      1     -10.0921      2.00000
      2      -9.9537      2.00000
      3      -9.8636      2.00000
      4      -9.8320      2.00000
      5      -9.7627      2.00000
      6      -9.7168      2.00000
      7      -9.6713      2.00000
      8      -9.6294      2.00000
      9      -9.6136      2.00000
     10      -9.5738      2.00000
     11      -9.5512      2.00000
     12      -9.5087      2.00000
     13      -9.4729      2.00000
     14      -9.3510      2.00000
     15      -9.3242      2.00000
     16      -8.8755      2.00000
     17      -8.7698      2.00000
     18      -8.7594      2.00000
     19      -8.7105      2.00000
     20      -8.6798      2.00000
     21      -8.6209      2.00000
     22      -8.5938      2.00000
     23      -8.5781      2.00000
     24      -8.5548      2.00000
     25      -8.5430      2.00000
     26      -8.5280      2.00000
     27      -8.5183      2.00000
     28      -8.5004      2.00000
     29      -8.4739      2.00000
     30      -8.4682      2.00000
     31      -8.3529      2.00000
     32      -8.3392      2.00000
     33      -8.2878      2.00000
     34      -8.2424      2.00000
     35      -8.1382      2.00000
     36      -7.8179      2.00000
     37      -7.7925      2.00000
     38      -7.7842      2.00000
     39      -7.7818      2.00000
     40      -7.7669      2.00000
     41      -7.7584      2.00000
     42      -7.7453      2.00000
     43      -7.7380      2.00000
     44      -7.7307      2.00000
     45      -7.7229      2.00000
     46      -7.7192      2.00000
     47      -7.7037      2.00000
     48      -7.6928      2.00000
     49      -7.6903      2.00000
     50      -7.6824      2.00000
     51      -7.6764      2.00000
     52      -7.6718      2.00000
     53      -7.6561      2.00000
     54      -7.6501      2.00000
     55      -7.6458      2.00000
     56      -7.6386      2.00000
     57      -7.6331      2.00000
     58      -7.6260      2.00000
     59      -7.6181      2.00000
     60      -7.6075      2.00000
     61      -7.5939      2.00000
     62      -7.5827      2.00000
     63      -7.5787      2.00000
     64      -7.5723      2.00000
     65      -7.5620      2.00000
     66      -7.5558      2.00000
     67      -7.5484      2.00000
     68      -7.5389      2.00000
     69      -7.5313      2.00000
     70      -7.5260      2.00000
     71      -7.5121      2.00000
     72      -7.5013      2.00000
     73      -7.4815      2.00000
     74      -7.4776      2.00000
     75      -7.4662      2.00000
     76      -7.4409      2.00000
     77      -7.4351      2.00000
     78      -7.4188      2.00000
     79      -7.4093      2.00000
     80      -7.3957      2.00000
     81      -7.3831      2.00000
     82      -7.3002      2.00000
     83      -7.1946      2.00000
     84      -7.1080      2.00000
     85      -6.9713      2.00000
     86      -6.8427      2.00000
     87      -6.7535      2.00000
     88      -6.6182      2.00000
     89      -6.5281      2.00000
     90      -6.3751      2.00000
     91      -6.2187      2.00000
     92      -6.1321      2.00000
     93      -5.9369      2.00000
     94      -5.8282      2.00000
     95      -5.7023      2.00000
     96      -2.5725      2.00000
     97      -0.5999      2.00000
     98      -0.5177      2.00000
     99      -0.4290      2.00000
    100      -0.3565      2.00000
    101      -0.2452      2.00000
    102      -0.1109      2.00000
    103      -0.0256      2.00000
    104       0.1359      2.00000
    105       0.5616      2.00000
    106       0.6011      2.00000
    107       0.6668      2.00000
    108       0.8075      2.00000
    109       1.0486      2.00000
    110       1.3569      2.00000
    111       1.4373      2.00000
    112       1.6303      2.00000
    113       1.7128      2.00000
    114       1.8816      2.00000
    115       2.1622      2.00000
    116       2.2505      2.00000
    117       2.3579      2.00000
    118       2.5316      2.00000
    119       2.6879      2.00000
    120       2.7591      2.00000
    121       2.9237      2.00000
    122       2.9810      2.00000
    123       3.0542      2.00000
    124       3.1923      2.00000
    125       3.3439      2.00000
    126       3.4745      2.00000
    127       3.5703      2.00000
    128       3.6128      2.00000
    129       3.7688      2.00000
    130       3.8639      2.00000
    131       3.9418      2.00000
    132       4.0493      2.00000
    133       4.0781      2.00000
    134       4.1826      2.00000
    135       4.2596      2.00000
    136       4.3163      2.00000
    137       4.3707      2.00000
    138       4.4833      2.00000
    139       4.5922      2.00000
    140       4.7246      2.00000
    141       4.8265      2.00000
    142       6.9654      0.00000
    143       7.4832      0.00000
    144       7.7928      0.00000
    145      10.1807      0.00000
    146      10.3251      0.00000
    147      10.5788      0.00000
    148      10.7920      0.00000
    149      11.0142      0.00000
    150      11.1112      0.00000
    151      11.2112      0.00000
    152      11.3150      0.00000
    153      11.5174      0.00000
    154      11.5956      0.00000
    155      11.7285      0.00000
    156      11.8601      0.00000
    157      12.0704      0.00000
    158      12.2699      0.00000
    159      12.4091      0.00000
    160      12.5957      0.00000
    161      12.7162      0.00000
    162      12.9172      0.00000
    163      13.0587      0.00000
    164      13.1980      0.00000
    165      13.3076      0.00000
    166      13.4424      0.00000
    167      13.5551      0.00000
    168      13.7459      0.00000

 k-point    12 :      -0.1250   -0.3750    0.2500
  band No.  band energies     occupation 
      1     -10.2266      2.00000
      2     -10.0096      2.00000
      3      -9.9043      2.00000
      4      -9.8133      2.00000
      5      -9.7437      2.00000
      6      -9.7065      2.00000
      7      -9.6762      2.00000
      8      -9.6445      2.00000
      9      -9.6294      2.00000
     10      -9.5488      2.00000
     11      -9.5289      2.00000
     12      -9.4977      2.00000
     13      -9.4694      2.00000
     14      -9.3743      2.00000
     15      -9.3394      2.00000
     16      -8.8767      2.00000
     17      -8.7730      2.00000
     18      -8.7249      2.00000
     19      -8.6982      2.00000
     20      -8.6701      2.00000
     21      -8.6214      2.00000
     22      -8.6075      2.00000
     23      -8.5920      2.00000
     24      -8.5499      2.00000
     25      -8.5401      2.00000
     26      -8.5288      2.00000
     27      -8.5162      2.00000
     28      -8.4974      2.00000
     29      -8.4828      2.00000
     30      -8.4070      2.00000
     31      -8.3534      2.00000
     32      -8.3400      2.00000
     33      -8.2904      2.00000
     34      -8.2569      2.00000
     35      -8.1748      2.00000
     36      -7.8216      2.00000
     37      -7.8126      2.00000
     38      -7.7918      2.00000
     39      -7.7853      2.00000
     40      -7.7767      2.00000
     41      -7.7657      2.00000
     42      -7.7592      2.00000
     43      -7.7477      2.00000
     44      -7.7385      2.00000
     45      -7.7309      2.00000
     46      -7.7233      2.00000
     47      -7.7112      2.00000
     48      -7.7083      2.00000
     49      -7.6958      2.00000
     50      -7.6834      2.00000
     51      -7.6756      2.00000
     52      -7.6708      2.00000
     53      -7.6623      2.00000
     54      -7.6532      2.00000
     55      -7.6398      2.00000
     56      -7.6336      2.00000
     57      -7.6298      2.00000
     58      -7.6191      2.00000
     59      -7.6114      2.00000
     60      -7.6053      2.00000
     61      -7.5944      2.00000
     62      -7.5861      2.00000
     63      -7.5783      2.00000
     64      -7.5696      2.00000
     65      -7.5566      2.00000
     66      -7.5508      2.00000
     67      -7.5406      2.00000
     68      -7.5294      2.00000
     69      -7.5249      2.00000
     70      -7.5192      2.00000
     71      -7.5110      2.00000
     72      -7.4878      2.00000
     73      -7.4811      2.00000
     74      -7.4655      2.00000
     75      -7.4552      2.00000
     76      -7.4446      2.00000
     77      -7.4317      2.00000
     78      -7.4202      2.00000
     79      -7.3987      2.00000
     80      -7.3905      2.00000
     81      -7.3861      2.00000
     82      -7.3648      2.00000
     83      -7.2460      2.00000
     84      -7.0763      2.00000
     85      -6.8496      2.00000
     86      -6.7274      2.00000
     87      -6.5369      2.00000
     88      -6.4626      2.00000
     89      -6.3556      2.00000
     90      -6.2161      2.00000
     91      -6.1784      2.00000
     92      -6.0783      2.00000
     93      -5.9673      2.00000
     94      -5.8591      2.00000
     95      -5.8022      2.00000
     96      -2.4103      2.00000
     97      -1.0923      2.00000
     98      -0.9647      2.00000
     99      -0.8261      2.00000
    100      -0.7900      2.00000
    101      -0.6540      2.00000
    102      -0.6137      2.00000
    103      -0.3177      2.00000
    104      -0.2452      2.00000
    105       0.1019      2.00000
    106       0.2871      2.00000
    107       0.5202      2.00000
    108       0.7506      2.00000
    109       0.9595      2.00000
    110       1.3418      2.00000
    111       1.4781      2.00000
    112       1.6658      2.00000
    113       2.1090      2.00000
    114       2.4597      2.00000
    115       2.5616      2.00000
    116       2.6304      2.00000
    117       2.6612      2.00000
    118       2.7977      2.00000
    119       2.9395      2.00000
    120       3.0417      2.00000
    121       3.1828      2.00000
    122       3.2606      2.00000
    123       3.3662      2.00000
    124       3.4100      2.00000
    125       3.5186      2.00000
    126       3.5985      2.00000
    127       3.6199      2.00000
    128       3.7603      2.00000
    129       3.8626      2.00000
    130       4.0029      2.00000
    131       4.0525      2.00000
    132       4.1358      2.00000
    133       4.2053      2.00000
    134       4.2543      2.00000
    135       4.3077      2.00000
    136       4.3988      2.00000
    137       4.4641      2.00000
    138       4.5650      2.00000
    139       4.6985      2.00000
    140       4.8823      2.00000
    141       5.0236      2.00000
    142       6.9977      0.00000
    143       7.6314      0.00000
    144       8.3599      0.00000
    145       9.8360      0.00000
    146       9.8956      0.00000
    147      10.0921      0.00000
    148      10.3834      0.00000
    149      10.5437      0.00000
    150      10.6232      0.00000
    151      10.7653      0.00000
    152      10.8936      0.00000
    153      11.0307      0.00000
    154      11.1196      0.00000
    155      11.2477      0.00000
    156      11.4026      0.00000
    157      11.7276      0.00000
    158      11.8427      0.00000
    159      12.0128      0.00000
    160      12.4018      0.00000
    161      12.4515      0.00000
    162      12.8229      0.00000
    163      13.0445      0.00000
    164      13.2053      0.00000
    165      13.2754      0.00000
    166      13.4579      0.00000
    167      13.6823      0.00000
    168      13.8595      0.00000

 k-point    13 :       0.1250   -0.1250    0.2500
  band No.  band energies     occupation 
      1     -10.4660      2.00000
      2     -10.1604      2.00000
      3      -9.9016      2.00000
      4      -9.7864      2.00000
      5      -9.7569      2.00000
      6      -9.6858      2.00000
      7      -9.6664      2.00000
      8      -9.6446      2.00000
      9      -9.5853      2.00000
     10      -9.5363      2.00000
     11      -9.4943      2.00000
     12      -9.4816      2.00000
     13      -9.4647      2.00000
     14      -9.3832      2.00000
     15      -9.3315      2.00000
     16      -8.8534      2.00000
     17      -8.7707      2.00000
     18      -8.7562      2.00000
     19      -8.7313      2.00000
     20      -8.6835      2.00000
     21      -8.6342      2.00000
     22      -8.6263      2.00000
     23      -8.5943      2.00000
     24      -8.5524      2.00000
     25      -8.5476      2.00000
     26      -8.5338      2.00000
     27      -8.5142      2.00000
     28      -8.4978      2.00000
     29      -8.4439      2.00000
     30      -8.3948      2.00000
     31      -8.3668      2.00000
     32      -8.3431      2.00000
     33      -8.3006      2.00000
     34      -8.2773      2.00000
     35      -8.1412      2.00000
     36      -7.8479      2.00000
     37      -7.8409      2.00000
     38      -7.8077      2.00000
     39      -7.7962      2.00000
     40      -7.7891      2.00000
     41      -7.7730      2.00000
     42      -7.7716      2.00000
     43      -7.7604      2.00000
     44      -7.7532      2.00000
     45      -7.7380      2.00000
     46      -7.7304      2.00000
     47      -7.7231      2.00000
     48      -7.7066      2.00000
     49      -7.7036      2.00000
     50      -7.6890      2.00000
     51      -7.6794      2.00000
     52      -7.6689      2.00000
     53      -7.6604      2.00000
     54      -7.6485      2.00000
     55      -7.6425      2.00000
     56      -7.6363      2.00000
     57      -7.6258      2.00000
     58      -7.6204      2.00000
     59      -7.6063      2.00000
     60      -7.6010      2.00000
     61      -7.5912      2.00000
     62      -7.5892      2.00000
     63      -7.5803      2.00000
     64      -7.5714      2.00000
     65      -7.5626      2.00000
     66      -7.5583      2.00000
     67      -7.5493      2.00000
     68      -7.5312      2.00000
     69      -7.5262      2.00000
     70      -7.5187      2.00000
     71      -7.5141      2.00000
     72      -7.5033      2.00000
     73      -7.4869      2.00000
     74      -7.4709      2.00000
     75      -7.4582      2.00000
     76      -7.4426      2.00000
     77      -7.4386      2.00000
     78      -7.4166      2.00000
     79      -7.4146      2.00000
     80      -7.3964      2.00000
     81      -7.3926      2.00000
     82      -7.3850      2.00000
     83      -7.1951      2.00000
     84      -6.9030      2.00000
     85      -6.6837      2.00000
     86      -6.5865      2.00000
     87      -6.4595      2.00000
     88      -6.3588      2.00000
     89      -6.2502      2.00000
     90      -6.1728      2.00000
     91      -6.1162      2.00000
     92      -5.9505      2.00000
     93      -5.8504      2.00000
     94      -5.7864      2.00000
     95      -5.7092      2.00000
     96      -2.2237      2.00000
     97      -1.0704      2.00000
     98      -0.9947      2.00000
     99      -0.8331      2.00000
    100      -0.7277      2.00000
    101      -0.4935      2.00000
    102      -0.4013      2.00000
    103      -0.3213      2.00000
    104      -0.2819      2.00000
    105      -0.2329      2.00000
    106       0.2147      2.00000
    107       0.4375      2.00000
    108       0.4827      2.00000
    109       0.7457      2.00000
    110       1.1500      2.00000
    111       1.3956      2.00000
    112       1.5389      2.00000
    113       1.5964      2.00000
    114       1.7684      2.00000
    115       2.1487      2.00000
    116       2.2823      2.00000
    117       2.4615      2.00000
    118       2.6913      2.00000
    119       2.7939      2.00000
    120       2.8823      2.00000
    121       3.0657      2.00000
    122       3.2226      2.00000
    123       3.2560      2.00000
    124       3.3644      2.00000
    125       3.3921      2.00000
    126       3.5481      2.00000
    127       3.6442      2.00000
    128       3.7482      2.00000
    129       3.8914      2.00000
    130       3.9823      2.00000
    131       4.0788      2.00000
    132       4.1962      2.00000
    133       4.2372      2.00000
    134       4.3243      2.00000
    135       4.4184      2.00000
    136       4.5951      2.00000
    137       4.7213      2.00000
    138       4.8324      2.00000
    139       4.9768      2.00000
    140       5.1495      0.00001
    141       5.3390      0.00000
    142       7.4620      0.00000
    143       7.6066      0.00000
    144       8.0951      0.00000
    145       9.0818      0.00000
    146       9.9067      0.00000
    147      10.2003      0.00000
    148      10.5508      0.00000
    149      10.6607      0.00000
    150      10.7726      0.00000
    151      10.9320      0.00000
    152      11.1557      0.00000
    153      11.2058      0.00000
    154      11.2641      0.00000
    155      11.4447      0.00000
    156      11.7858      0.00000
    157      11.9329      0.00000
    158      12.1765      0.00000
    159      12.4680      0.00000
    160      12.5462      0.00000
    161      12.7659      0.00000
    162      13.0392      0.00000
    163      13.1708      0.00000
    164      13.3167      0.00000
    165      13.4973      0.00000
    166      13.5876      0.00000
    167      13.8767      0.00000
    168      13.9777      0.00000

 k-point    14 :       0.3750   -0.1250    0.2500
  band No.  band energies     occupation 
      1     -10.2702      2.00000
      2     -10.0411      2.00000
      3      -9.9789      2.00000
      4      -9.8180      2.00000
      5      -9.7989      2.00000
      6      -9.7150      2.00000
      7      -9.6580      2.00000
      8      -9.6324      2.00000
      9      -9.5980      2.00000
     10      -9.5392      2.00000
     11      -9.5148      2.00000
     12      -9.4781      2.00000
     13      -9.4610      2.00000
     14      -9.3456      2.00000
     15      -9.3270      2.00000
     16      -8.8588      2.00000
     17      -8.7746      2.00000
     18      -8.7468      2.00000
     19      -8.7284      2.00000
     20      -8.6863      2.00000
     21      -8.6557      2.00000
     22      -8.6211      2.00000
     23      -8.5966      2.00000
     24      -8.5631      2.00000
     25      -8.5514      2.00000
     26      -8.5351      2.00000
     27      -8.5145      2.00000
     28      -8.5109      2.00000
     29      -8.4954      2.00000
     30      -8.4030      2.00000
     31      -8.3702      2.00000
     32      -8.3447      2.00000
     33      -8.3033      2.00000
     34      -8.2430      2.00000
     35      -8.1219      2.00000
     36      -7.8268      2.00000
     37      -7.8192      2.00000
     38      -7.8004      2.00000
     39      -7.7858      2.00000
     40      -7.7826      2.00000
     41      -7.7696      2.00000
     42      -7.7593      2.00000
     43      -7.7436      2.00000
     44      -7.7349      2.00000
     45      -7.7294      2.00000
     46      -7.7257      2.00000
     47      -7.7086      2.00000
     48      -7.7001      2.00000
     49      -7.6954      2.00000
     50      -7.6878      2.00000
     51      -7.6765      2.00000
     52      -7.6724      2.00000
     53      -7.6615      2.00000
     54      -7.6543      2.00000
     55      -7.6478      2.00000
     56      -7.6392      2.00000
     57      -7.6262      2.00000
     58      -7.6202      2.00000
     59      -7.6155      2.00000
     60      -7.6035      2.00000
     61      -7.5967      2.00000
     62      -7.5893      2.00000
     63      -7.5839      2.00000
     64      -7.5759      2.00000
     65      -7.5685      2.00000
     66      -7.5638      2.00000
     67      -7.5563      2.00000
     68      -7.5456      2.00000
     69      -7.5394      2.00000
     70      -7.5329      2.00000
     71      -7.5250      2.00000
     72      -7.5147      2.00000
     73      -7.4889      2.00000
     74      -7.4830      2.00000
     75      -7.4742      2.00000
     76      -7.4531      2.00000
     77      -7.4360      2.00000
     78      -7.4281      2.00000
     79      -7.4196      2.00000
     80      -7.4093      2.00000
     81      -7.3975      2.00000
     82      -7.3849      2.00000
     83      -7.3556      2.00000
     84      -7.2053      2.00000
     85      -6.9529      2.00000
     86      -6.6566      2.00000
     87      -6.4195      2.00000
     88      -6.2673      2.00000
     89      -6.2017      2.00000
     90      -6.0655      2.00000
     91      -6.0184      2.00000
     92      -6.0001      2.00000
     93      -5.8514      2.00000
     94      -5.7715      2.00000
     95      -5.6825      2.00000
     96      -2.2358      2.00000
     97      -0.8353      2.00000
     98      -0.7552      2.00000
     99      -0.6091      2.00000
    100      -0.5230      2.00000
    101      -0.3985      2.00000
    102      -0.3052      2.00000
    103      -0.2486      2.00000
    104      -0.0882      2.00000
    105       0.1483      2.00000
    106       0.3989      2.00000
    107       0.5140      2.00000
    108       0.8243      2.00000
    109       1.0140      2.00000
    110       1.1421      2.00000
    111       1.3795      2.00000
    112       1.5067      2.00000
    113       1.7116      2.00000
    114       1.8885      2.00000
    115       1.9986      2.00000
    116       2.1783      2.00000
    117       2.3795      2.00000
    118       2.4645      2.00000
    119       2.6483      2.00000
    120       2.7531      2.00000
    121       2.8338      2.00000
    122       2.9728      2.00000
    123       3.1418      2.00000
    124       3.2628      2.00000
    125       3.3576      2.00000
    126       3.4081      2.00000
    127       3.4892      2.00000
    128       3.5483      2.00000
    129       3.6901      2.00000
    130       3.8350      2.00000
    131       3.9405      2.00000
    132       4.0405      2.00000
    133       4.1633      2.00000
    134       4.2377      2.00000
    135       4.2491      2.00000
    136       4.3502      2.00000
    137       4.5384      2.00000
    138       4.5906      2.00000
    139       4.7797      2.00000
    140       4.9914      2.00000
    141       5.1061      1.90390
    142       6.7724      0.00000
    143       7.6854      0.00000
    144       7.8336      0.00000
    145       9.7574      0.00000
    146      10.4437      0.00000
    147      10.6567      0.00000
    148      10.8087      0.00000
    149      10.9335      0.00000
    150      11.1616      0.00000
    151      11.2887      0.00000
    152      11.4331      0.00000
    153      11.7181      0.00000
    154      11.8514      0.00000
    155      11.9080      0.00000
    156      12.1308      0.00000
    157      12.2163      0.00000
    158      12.4760      0.00000
    159      12.5422      0.00000
    160      12.8296      0.00000
    161      12.9597      0.00000
    162      13.0215      0.00000
    163      13.2222      0.00000
    164      13.3549      0.00000
    165      13.4147      0.00000
    166      13.6512      0.00000
    167      13.6809      0.00000
    168      13.8598      0.00000

 k-point    15 :      -0.3750   -0.1250    0.2500
  band No.  band energies     occupation 
      1     -10.2732      2.00000
      2     -10.0460      2.00000
      3      -9.9473      2.00000
      4      -9.8747      2.00000
      5      -9.7690      2.00000
      6      -9.7011      2.00000
      7      -9.6671      2.00000
      8      -9.6356      2.00000
      9      -9.5943      2.00000
     10      -9.5414      2.00000
     11      -9.5130      2.00000
     12      -9.4831      2.00000
     13      -9.4559      2.00000
     14      -9.3458      2.00000
     15      -9.3273      2.00000
     16      -8.8604      2.00000
     17      -8.7756      2.00000
     18      -8.7433      2.00000
     19      -8.7235      2.00000
     20      -8.6953      2.00000
     21      -8.6562      2.00000
     22      -8.6194      2.00000
     23      -8.5979      2.00000
     24      -8.5630      2.00000
     25      -8.5494      2.00000
     26      -8.5348      2.00000
     27      -8.5181      2.00000
     28      -8.5091      2.00000
     29      -8.4929      2.00000
     30      -8.4068      2.00000
     31      -8.3668      2.00000
     32      -8.3461      2.00000
     33      -8.3024      2.00000
     34      -8.2428      2.00000
     35      -8.1231      2.00000
     36      -7.8258      2.00000
     37      -7.8196      2.00000
     38      -7.7997      2.00000
     39      -7.7890      2.00000
     40      -7.7821      2.00000
     41      -7.7749      2.00000
     42      -7.7527      2.00000
     43      -7.7469      2.00000
     44      -7.7368      2.00000
     45      -7.7263      2.00000
     46      -7.7135      2.00000
     47      -7.7061      2.00000
     48      -7.7029      2.00000
     49      -7.6953      2.00000
     50      -7.6892      2.00000
     51      -7.6853      2.00000
     52      -7.6710      2.00000
     53      -7.6606      2.00000
     54      -7.6537      2.00000
     55      -7.6450      2.00000
     56      -7.6384      2.00000
     57      -7.6272      2.00000
     58      -7.6190      2.00000
     59      -7.6101      2.00000
     60      -7.6039      2.00000
     61      -7.6007      2.00000
     62      -7.5880      2.00000
     63      -7.5865      2.00000
     64      -7.5740      2.00000
     65      -7.5715      2.00000
     66      -7.5629      2.00000
     67      -7.5522      2.00000
     68      -7.5497      2.00000
     69      -7.5431      2.00000
     70      -7.5356      2.00000
     71      -7.5169      2.00000
     72      -7.5102      2.00000
     73      -7.5012      2.00000
     74      -7.4826      2.00000
     75      -7.4683      2.00000
     76      -7.4591      2.00000
     77      -7.4361      2.00000
     78      -7.4283      2.00000
     79      -7.4236      2.00000
     80      -7.4129      2.00000
     81      -7.4000      2.00000
     82      -7.3847      2.00000
     83      -7.3526      2.00000
     84      -7.2003      2.00000
     85      -6.9525      2.00000
     86      -6.6527      2.00000
     87      -6.4188      2.00000
     88      -6.2690      2.00000
     89      -6.1954      2.00000
     90      -6.1106      2.00000
     91      -6.0151      2.00000
     92      -5.9367      2.00000
     93      -5.8733      2.00000
     94      -5.7617      2.00000
     95      -5.6987      2.00000
     96      -2.2365      2.00000
     97      -0.8380      2.00000
     98      -0.7715      2.00000
     99      -0.5937      2.00000
    100      -0.5361      2.00000
    101      -0.4008      2.00000
    102      -0.3270      2.00000
    103      -0.2436      2.00000
    104      -0.0559      2.00000
    105       0.1791      2.00000
    106       0.3848      2.00000
    107       0.4988      2.00000
    108       0.8174      2.00000
    109       1.0571      2.00000
    110       1.1408      2.00000
    111       1.3443      2.00000
    112       1.5281      2.00000
    113       1.7514      2.00000
    114       1.8996      2.00000
    115       2.0124      2.00000
    116       2.1396      2.00000
    117       2.3303      2.00000
    118       2.4622      2.00000
    119       2.6379      2.00000
    120       2.7581      2.00000
    121       2.8294      2.00000
    122       2.9652      2.00000
    123       3.0947      2.00000
    124       3.2852      2.00000
    125       3.3696      2.00000
    126       3.3989      2.00000
    127       3.4932      2.00000
    128       3.5501      2.00000
    129       3.6794      2.00000
    130       3.8785      2.00000
    131       3.9352      2.00000
    132       4.0648      2.00000
    133       4.1399      2.00000
    134       4.2262      2.00000
    135       4.2793      2.00000
    136       4.3377      2.00000
    137       4.5087      2.00000
    138       4.6789      2.00000
    139       4.7317      2.00000
    140       5.0125      2.00000
    141       5.1054      1.91993
    142       6.6722      0.00000
    143       7.7183      0.00000
    144       7.8992      0.00000
    145       9.7375      0.00000
    146      10.4789      0.00000
    147      10.6183      0.00000
    148      10.7896      0.00000
    149      10.9847      0.00000
    150      11.1323      0.00000
    151      11.2820      0.00000
    152      11.5478      0.00000
    153      11.6147      0.00000
    154      11.7984      0.00000
    155      11.9650      0.00000
    156      12.0684      0.00000
    157      12.2865      0.00000
    158      12.4915      0.00000
    159      12.5986      0.00000
    160      12.7808      0.00000
    161      12.9137      0.00000
    162      13.0315      0.00000
    163      13.1819      0.00000
    164      13.3650      0.00000
    165      13.4268      0.00000
    166      13.5471      0.00000
    167      13.6954      0.00000
    168      13.7622      0.00000

 k-point    16 :      -0.1250   -0.1250    0.2500
  band No.  band energies     occupation 
      1     -10.4670      2.00000
      2     -10.1591      2.00000
      3      -9.9044      2.00000
      4      -9.7887      2.00000
      5      -9.7473      2.00000
      6      -9.6906      2.00000
      7      -9.6631      2.00000
      8      -9.6503      2.00000
      9      -9.5806      2.00000
     10      -9.5345      2.00000
     11      -9.5007      2.00000
     12      -9.4835      2.00000
     13      -9.4590      2.00000
     14      -9.3829      2.00000
     15      -9.3321      2.00000
     16      -8.8543      2.00000
     17      -8.7744      2.00000
     18      -8.7534      2.00000
     19      -8.7285      2.00000
     20      -8.6864      2.00000
     21      -8.6368      2.00000
     22      -8.6215      2.00000
     23      -8.5962      2.00000
     24      -8.5533      2.00000
     25      -8.5455      2.00000
     26      -8.5342      2.00000
     27      -8.5127      2.00000
     28      -8.5002      2.00000
     29      -8.4381      2.00000
     30      -8.4028      2.00000
     31      -8.3626      2.00000
     32      -8.3457      2.00000
     33      -8.3021      2.00000
     34      -8.2734      2.00000
     35      -8.1429      2.00000
     36      -7.8451      2.00000
     37      -7.8429      2.00000
     38      -7.8081      2.00000
     39      -7.8001      2.00000
     40      -7.7880      2.00000
     41      -7.7777      2.00000
     42      -7.7707      2.00000
     43      -7.7557      2.00000
     44      -7.7492      2.00000
     45      -7.7392      2.00000
     46      -7.7281      2.00000
     47      -7.7205      2.00000
     48      -7.7092      2.00000
     49      -7.6989      2.00000
     50      -7.6926      2.00000
     51      -7.6803      2.00000
     52      -7.6714      2.00000
     53      -7.6610      2.00000
     54      -7.6468      2.00000
     55      -7.6416      2.00000
     56      -7.6341      2.00000
     57      -7.6262      2.00000
     58      -7.6188      2.00000
     59      -7.6057      2.00000
     60      -7.6024      2.00000
     61      -7.5946      2.00000
     62      -7.5868      2.00000
     63      -7.5824      2.00000
     64      -7.5711      2.00000
     65      -7.5646      2.00000
     66      -7.5589      2.00000
     67      -7.5493      2.00000
     68      -7.5356      2.00000
     69      -7.5254      2.00000
     70      -7.5180      2.00000
     71      -7.5115      2.00000
     72      -7.5000      2.00000
     73      -7.4856      2.00000
     74      -7.4747      2.00000
     75      -7.4593      2.00000
     76      -7.4427      2.00000
     77      -7.4377      2.00000
     78      -7.4199      2.00000
     79      -7.4161      2.00000
     80      -7.3964      2.00000
     81      -7.3910      2.00000
     82      -7.3856      2.00000
     83      -7.1909      2.00000
     84      -6.9092      2.00000
     85      -6.7097      2.00000
     86      -6.5479      2.00000
     87      -6.4581      2.00000
     88      -6.3644      2.00000
     89      -6.2518      2.00000
     90      -6.1629      2.00000
     91      -6.1189      2.00000
     92      -5.9544      2.00000
     93      -5.8596      2.00000
     94      -5.7607      2.00000
     95      -5.7304      2.00000
     96      -2.2229      2.00000
     97      -1.0841      2.00000
     98      -0.9955      2.00000
     99      -0.8431      2.00000
    100      -0.6894      2.00000
    101      -0.5001      2.00000
    102      -0.4281      2.00000
    103      -0.3652      2.00000
    104      -0.2922      2.00000
    105      -0.1821      2.00000
    106       0.2714      2.00000
    107       0.3666      2.00000
    108       0.5257      2.00000
    109       0.7768      2.00000
    110       1.1543      2.00000
    111       1.3914      2.00000
    112       1.5309      2.00000
    113       1.6196      2.00000
    114       1.7240      2.00000
    115       2.1456      2.00000
    116       2.2814      2.00000
    117       2.4623      2.00000
    118       2.6667      2.00000
    119       2.8009      2.00000
    120       2.9021      2.00000
    121       3.0602      2.00000
    122       3.1938      2.00000
    123       3.2321      2.00000
    124       3.3329      2.00000
    125       3.4422      2.00000
    126       3.5093      2.00000
    127       3.6847      2.00000
    128       3.7548      2.00000
    129       3.8847      2.00000
    130       4.0278      2.00000
    131       4.0800      2.00000
    132       4.1845      2.00000
    133       4.2221      2.00000
    134       4.3435      2.00000
    135       4.4133      2.00000
    136       4.5723      2.00000
    137       4.7405      2.00000
    138       4.8485      2.00000
    139       4.9756      2.00000
    140       5.1561      0.00000
    141       5.3270      0.00000
    142       7.3991      0.00000
    143       7.5417      0.00000
    144       8.2543      0.00000
    145       9.0686      0.00000
    146       9.9086      0.00000
    147      10.2049      0.00000
    148      10.5360      0.00000
    149      10.6220      0.00000
    150      10.8160      0.00000
    151      10.9309      0.00000
    152      11.0939      0.00000
    153      11.2136      0.00000
    154      11.2427      0.00000
    155      11.4694      0.00000
    156      11.8473      0.00000
    157      11.9172      0.00000
    158      12.1652      0.00000
    159      12.4402      0.00000
    160      12.5729      0.00000
    161      12.7840      0.00000
    162      13.0243      0.00000
    163      13.1648      0.00000
    164      13.3535      0.00000
    165      13.3861      0.00000
    166      13.6606      0.00000
    167      13.7636      0.00000
    168      13.8637      0.00000


--------------------------------------------------------------------------------------------------------


 soft charge-density along one line, spin component           1
         0         1         2         3         4         5         6         7         8         9
 total charge-density along one line
 
 pseudopotential strength for first ion, spin component:           1
-11.104   0.002   0.010  -0.009   0.000   0.269  -0.001  -0.005
  0.002 -11.116  -0.006  -0.008   0.008  -0.001   0.278   0.004
  0.010  -0.006 -11.105   0.002  -0.011  -0.005   0.004   0.270
 -0.009  -0.008   0.002 -11.097   0.002   0.006   0.004  -0.001
  0.000   0.008  -0.011   0.002 -11.103  -0.000  -0.005   0.007
  0.269  -0.001  -0.005   0.006  -0.000   4.984   0.001   0.002
 -0.001   0.278   0.004   0.004  -0.005   0.001   4.977  -0.002
 -0.005   0.004   0.270  -0.001   0.007   0.002  -0.002   4.982
  0.006   0.004  -0.001   0.265  -0.001  -0.004  -0.002   0.001
 -0.000  -0.005   0.007  -0.001   0.269   0.000   0.002  -0.005
 -0.000   0.001   0.001   0.000  -0.002   0.002  -0.001  -0.002
  0.003   0.000  -0.002  -0.001   0.001  -0.001  -0.000   0.001
 -0.001   0.001   0.002   0.000   0.001   0.000   0.000  -0.001
  0.000  -0.002  -0.001  -0.001   0.000  -0.000   0.002   0.001
 -0.004   0.000   0.001   0.002  -0.001   0.003  -0.000  -0.001
  0.001   0.001  -0.002  -0.000  -0.005   0.000  -0.004   0.002
 -0.000   0.005  -0.002   0.001  -0.001   0.000  -0.005   0.002
  0.004  -0.000  -0.002  -0.000   0.002  -0.002   0.000   0.001
 total augmentation occupancy for first ion, spin component:           1
  2.013  -0.000  -0.000  -0.003   0.000   0.036  -0.001  -0.000  -0.013   0.001   0.002  -0.000   0.001  -0.000   0.027   0.000
 -0.000   2.008  -0.000   0.000  -0.002  -0.001   0.023  -0.001  -0.000  -0.009  -0.001  -0.001  -0.009   0.004  -0.000  -0.002
 -0.000  -0.000   2.012   0.000  -0.001  -0.000  -0.001   0.037   0.002  -0.003  -0.003  -0.000  -0.006   0.022   0.000  -0.000
 -0.003   0.000   0.000   2.010   0.000  -0.013  -0.000   0.002   0.027   0.000  -0.001   0.000  -0.000   0.001  -0.014  -0.000
  0.000  -0.002  -0.001   0.000   2.011   0.001  -0.009  -0.003   0.000   0.033   0.002   0.001   0.013  -0.003  -0.001   0.002
  0.036  -0.001  -0.000  -0.013   0.001   0.096  -0.004   0.001  -0.037   0.004  -0.006   0.000   0.026  -0.001   0.221   0.001
 -0.001   0.023  -0.001  -0.000  -0.009  -0.004   0.058  -0.006  -0.001  -0.029  -0.021  -0.001  -0.125  -0.012  -0.003  -0.003
 -0.000  -0.001   0.037   0.002  -0.003   0.001  -0.006   0.113   0.006  -0.008  -0.016  -0.001  -0.032   0.233   0.007  -0.001
 -0.013  -0.000   0.002   0.027   0.000  -0.037  -0.001   0.006   0.068   0.001   0.002   0.000  -0.002   0.023  -0.146  -0.000
  0.001  -0.009  -0.003   0.000   0.033   0.004  -0.029  -0.008   0.001   0.088   0.025   0.001   0.174  -0.010  -0.010   0.004
  0.002  -0.001  -0.003  -0.001   0.002  -0.006  -0.021  -0.016   0.002   0.025   1.308   0.040   0.044  -0.005   0.002   0.002
 -0.000  -0.001  -0.000   0.000   0.001   0.000  -0.001  -0.001   0.000   0.001   0.040   0.002   0.002   0.000   0.001   0.000
  0.001  -0.009  -0.006  -0.000   0.013   0.026  -0.125  -0.032  -0.002   0.174   0.044   0.002   0.977  -0.052  -0.010   0.022
 -0.000   0.004   0.022   0.001  -0.003  -0.001  -0.012   0.233   0.023  -0.010  -0.005   0.000  -0.052   0.982   0.003  -0.001
  0.027  -0.000   0.000  -0.014  -0.001   0.221  -0.003   0.007  -0.146  -0.010   0.002   0.001  -0.010   0.003   1.103  -0.000
  0.000  -0.002  -0.000  -0.000   0.002   0.001  -0.003  -0.001  -0.000   0.004   0.002   0.000   0.022  -0.001  -0.000   0.001
 -0.000  -0.000   0.003   0.000  -0.000  -0.000  -0.000   0.005   0.000  -0.000  -0.000  -0.000  -0.001   0.022   0.000  -0.000
  0.003  -0.000   0.000  -0.002  -0.000   0.005  -0.000   0.000  -0.004  -0.000   0.001   0.000  -0.000   0.000   0.025  -0.000


------------------------ aborting loop because EDIFF is reached ----------------------------------------


    CHARGE:  cpu time    0.1200: real time    0.1198
    FORLOC:  cpu time    0.0040: real time    0.0037
    FORNL :  cpu time    0.9160: real time    0.9150
    FORCOR:  cpu time    0.0200: real time    0.0199
    FORHAR:  cpu time    0.0040: real time    0.0069
    MIXING:  cpu time    0.0040: real time    0.0010
    OFIELD:  cpu time    0.0000: real time    0.0001

 VOLUME and BASIS-vectors are now :
 -----------------------------------------------------------------------------
  energy-cutoff  :      550.00
  volume of cell :      353.46
      direct lattice vectors                 reciprocal lattice vectors
     6.303928400  0.000000000  0.000000000     0.158631243  0.000000000  0.000000000
     0.000000000  5.459364400  0.000000000     0.000000000  0.183171506  0.000000000
     0.000000000  0.000000000 10.270302800     0.000000000  0.000000000  0.097368113

  length of vectors
     6.303928400  5.459364400 10.270302800     0.158631243  0.183171506  0.097368113


 FORCES acting on ions
    electron-ion (+dipol)            ewald-force                    non-local-force                 convergence-correction
 -----------------------------------------------------------------------------------------------
   0.221E+02 0.519E+02 0.247E+02   -.211E+02 -.519E+02 -.256E+02   -.863E+00 -.875E+00 0.833E+00   -.133E-01 -.149E-02 -.588E-02
   -.110E+02 0.267E+02 0.267E+02   0.118E+02 -.268E+02 -.274E+02   -.714E+00 0.460E-01 0.156E+00   0.900E-02 -.178E-02 -.108E-01
   0.245E+02 -.732E+02 0.410E+02   -.238E+02 0.708E+02 -.425E+02   -.994E+00 0.255E+01 0.108E+01   0.288E-02 0.162E-01 -.106E-01
   -.242E+02 -.105E+02 -.226E+02   0.232E+02 0.117E+02 0.214E+02   0.129E+01 -.104E+01 0.196E+01   -.149E-02 -.521E-02 0.171E-01
   0.164E+02 0.364E+02 0.236E+02   -.178E+02 -.371E+02 -.228E+02   0.618E+00 -.432E+00 -.803E+00   0.128E-01 0.307E-03 0.994E-02
   -.644E+01 0.226E+02 -.180E+02   0.700E+01 -.227E+02 0.165E+02   -.706E+00 -.289E+00 0.171E+01   -.488E-02 0.485E-02 0.137E-01
   0.149E+02 -.141E+02 -.212E+01   -.130E+02 0.145E+02 -.359E-01   -.170E+01 -.512E+00 0.211E+01   -.472E-02 -.902E-03 0.132E-01
   -.309E+02 -.491E+02 0.179E+02   0.290E+02 0.487E+02 -.193E+02   0.255E+01 0.138E+01 0.924E+00   0.128E-02 -.230E-02 0.107E-01
   0.179E+02 0.204E+02 -.276E+02   -.185E+02 -.200E+02 0.265E+02   0.492E+00 -.375E+00 0.112E+01   -.181E-01 0.103E-03 -.769E-02
   -.277E+02 0.271E+02 0.146E+02   0.279E+02 -.248E+02 -.142E+02   0.241E+00 -.203E+01 -.142E+01   0.161E-01 -.271E-02 -.652E-02
   0.157E+02 -.262E+02 -.660E+02   -.162E+02 0.261E+02 0.665E+02   0.463E+00 0.234E+00 0.232E+00   -.495E-03 0.366E-02 -.292E-02
   -.218E+02 -.113E+02 -.516E+02   0.221E+02 0.102E+02 0.365E+02   -.330E+00 0.102E+01 0.126E+02   0.615E-02 -.128E-02 0.542E-03
   0.172E+02 0.475E+02 -.130E+02   -.167E+02 -.455E+02 0.145E+02   -.295E+00 -.255E+01 -.148E+01   -.398E-02 -.133E-01 0.414E-02
   -.263E+02 -.295E+02 -.291E+02   0.259E+02 0.161E+02 0.341E+02   0.498E+00 0.108E+02 -.385E+01   0.537E-02 0.423E-02 0.801E-02
   0.495E+02 -.128E+02 -.138E+02   -.605E+02 0.192E+02 0.215E+02   0.774E+01 -.508E+01 -.627E+01   -.240E-01 0.674E-02 0.191E-02
   -.632E+02 0.271E+02 0.955E+01   0.724E+02 -.210E+02 -.165E+01   -.650E+01 -.522E+01 -.706E+01   0.272E-01 -.906E-03 -.516E-02
   0.137E+02 0.636E+01 0.219E+01   -.150E+02 -.577E+01 -.208E+01   0.140E+01 -.818E+00 0.641E+00   0.219E-03 -.558E-02 0.475E-04
   -.134E+02 0.218E+02 0.373E+02   0.140E+02 -.239E+02 -.388E+02   -.357E+00 0.241E+01 0.730E+00   0.128E-02 -.501E-02 0.347E-02
   0.391E+02 -.305E+02 0.293E+02   -.403E+02 0.327E+02 -.308E+02   0.224E+00 -.168E+01 0.146E+01   -.141E-01 0.640E-02 0.644E-02
   -.369E+02 -.648E+01 0.192E+02   0.380E+02 0.723E+01 -.188E+02   -.200E+00 -.131E+01 -.463E+00   0.126E-01 0.381E-02 0.461E-02
   -.184E+02 0.152E+02 0.261E+02   0.205E+02 -.161E+02 -.276E+02   -.204E+01 0.151E+01 0.126E+01   0.374E-03 -.277E-03 -.338E-02
   -.981E+01 0.262E+02 -.734E+01   0.113E+02 -.273E+02 0.923E+01   -.155E+01 0.495E+00 -.158E+01   -.123E-02 -.402E-02 -.246E-02
   0.117E+02 -.293E+02 0.336E+02   -.126E+02 0.301E+02 -.355E+02   0.791E+00 0.852E+00 0.144E+01   -.152E-04 0.609E-02 -.255E-02
   0.974E+01 -.587E+01 0.173E+02   -.112E+02 0.648E+01 -.184E+02   0.110E+01 -.125E+01 0.592E+00   -.299E-03 -.720E-03 -.228E-02
   0.224E+02 0.134E+02 -.225E+01   -.239E+02 -.145E+02 0.127E+01   0.116E+01 0.136E+01 0.192E+01   -.341E-03 -.260E-02 0.183E-02
   -.518E+01 -.107E+02 0.207E+02   0.514E+01 0.109E+02 -.221E+02   0.333E+00 -.138E+00 0.120E+01   0.663E-05 -.147E-02 -.125E-01
   -.111E+02 0.617E+01 0.953E+01   0.117E+02 -.605E+01 -.108E+02   -.544E+00 -.698E+00 0.175E+01   -.546E-02 0.121E-02 -.104E-01
   0.257E+01 0.574E+00 -.519E+01   -.231E+01 -.141E+01 0.439E+01   -.282E+00 0.163E+01 0.182E+01   0.500E-02 0.310E-02 -.747E-02
   0.134E+02 0.269E+02 -.381E+02   -.150E+02 -.279E+02 0.406E+02   0.265E+01 0.118E+01 -.310E+01   -.121E-01 -.572E-03 0.405E-02
   0.181E+01 0.943E+01 -.351E+02   -.200E+01 -.860E+01 0.359E+02   -.503E+00 -.151E+01 -.285E-01   0.122E-01 -.167E-02 0.692E-02
   0.107E+02 -.729E+02 -.273E+02   -.101E+02 0.768E+02 0.294E+02   -.903E+00 -.282E+01 -.350E+01   -.577E-02 0.764E-02 0.296E-02
 -----------------------------------------------------------------------------------------------
   -.306E+01 0.316E+01 -.597E+01   -.178E-13 -.142E-13 -.632E-12   0.306E+01 -.317E+01 0.596E+01   0.224E-02 0.126E-01 0.189E-01
 
 
 POSITION                                       TOTAL-FORCE (eV/Angst)
 -----------------------------------------------------------------------------------
      1.54134      0.96584      2.51141         0.163504     -0.956893     -0.105787
      4.67542      0.95123      2.61629         0.077562     -0.119881     -0.574784
      0.01611      3.68934      2.50754        -0.330581      0.177803     -0.443983
      3.13686      3.64177      2.58739         0.320870      0.158936      0.796476
      0.10786      1.80610      5.09428        -0.715262     -1.162610      0.008461
      3.18608      1.83331      5.16960        -0.151963     -0.335571      0.273835
      1.56431      4.52058      5.16957         0.233577     -0.139615     -0.034767
      4.70782      4.44694      5.18481         0.702783      0.995211     -0.513342
      1.55281      0.87046      7.73517        -0.149591      0.029097      0.055654
      4.71098      0.82836      7.68392         0.433960      0.236516     -1.001388
      0.03365      3.52796      7.68632        -0.092447      0.127718      0.762790
      3.15400      3.59505      7.94100        -0.023418     -0.081655     -2.553073
      6.25099      1.79520      0.01540         0.183273     -0.565628      0.100275
      3.08983      2.06168     10.16880         0.096528     -2.653997      1.114887
      1.89923      4.44180     10.13210        -3.264337      1.269784      1.395593
      4.54459      4.56499     10.19510         2.774117      0.854755      0.832463
      6.24063      1.84855      1.90877         0.103433     -0.239883      0.754220
      3.11700      1.86348      1.89961         0.253340      0.377129     -0.758311
      1.66558      4.53423      1.83807        -0.991333      0.545890     -0.029674
      4.62665      4.61389      1.87442         0.969523     -0.548687     -0.006322
      1.64387      0.83520      4.47534        -0.000936      0.598444     -0.261884
      4.76022      0.90218      4.53053        -0.062428     -0.636952      0.305896
      0.01724      3.55633      4.48273        -0.119244      1.666033     -0.398080
      3.15205      3.64744      4.53223        -0.396666     -0.645426     -0.508077
      0.01680      1.72205      6.98859        -0.382183      0.192427      0.931950
      3.11975      1.81211      7.15987         0.289244      0.018446     -0.284463
      1.61158      4.51894      7.12675         0.028437     -0.576543      0.425773
      4.71334      4.40092      7.10450        -0.015132      0.803206      1.009431
      1.54083      0.88663      9.69133         1.070363      0.169250     -0.620059
      4.66126      1.00817      9.56606        -0.685933     -0.674100      0.725498
      0.04804      3.58860      9.72109        -0.319058      1.116795     -1.399207
 -----------------------------------------------------------------------------------
    total drift:                                0.000697     -0.005138      0.009328


--------------------------------------------------------------------------------------------------------



  FREE ENERGIE OF THE ION-ELECTRON SYSTEM (eV)
  ---------------------------------------------------
  free  energy   TOTEN  =      -192.92695754 eV

  energy  without entropy=     -192.92663628  energy(sigma->0) =     -192.92679691
 


--------------------------------------------------------------------------------------------------------


    POTLOK:  cpu time    0.0160: real time    0.0183


--------------------------------------------------------------------------------------------------------


     LOOP+:  cpu time   58.8600: real time   59.0227
    4ORBIT:  cpu time    0.0000: real time    0.0000

 total amount of memory used by VASP MPI-rank0    54108. kBytes
=======================================================================

   base      :      30000. kBytes
   nonl-proj :       5941. kBytes
   fftplans  :       1943. kBytes
   grid      :       3088. kBytes
   one-center:         62. kBytes
   wavefun   :      13074. kBytes
 
  
  
 General timing and accounting informations for this job:
 ========================================================
  
                  Total CPU time used (sec):       64.220
                            User time (sec):       61.660
                          System time (sec):        2.560
                         Elapsed time (sec):       64.467
  
                   Maximum memory used (kb):       76972.
                   Average memory used (kb):           0.
  
                          Minor page faults:        14442
                          Major page faults:            0
                 Voluntary context switches:          476
